%OpenBCI Raw EEG Data
%Number of channels = 8
%Sample Rate = 250.0 Hz
%First Column = SampleIndex
%Last Column = Timestamp 
%Other Columns = EEG data in microvolts followed by Accel Data (in G) interleaved with Aux Data
0, 0.00, 0.00, 0.00, 0.00, 0.00, 0.00, 0.00, 0.00, 0.020, -0.034, 0.972, 20:56:47.276, 1592535407276
1, 18418.73, 8419.99, -187500.02, 187500.00, -187500.02, -187500.02, -187500.02, -187500.02, 0.000, 0.000, 0.000, 20:56:47.301, 1592535407301
2, 18419.16, 8815.26, -187500.02, 187500.00, -187500.02, -187500.02, -187500.02, -187500.02, 0.000, 0.000, 0.000, 20:56:47.301, 1592535407301
3, 18421.86, 9133.03, -187500.02, 187500.00, -187500.02, -187500.02, -187500.02, -187500.02, 0.000, 0.000, 0.000, 20:56:47.301, 1592535407301
4, 18416.90, 8692.10, -187500.02, 187500.00, -187500.02, -187500.02, -187500.02, -187500.02, 0.000, 0.000, 0.000, 20:56:47.315, 1592535407315
5, 18431.27, 8405.46, -187500.02, 187500.00, -187500.02, -187500.02, -187500.02, -187500.02, 0.000, 0.000, 0.000, 20:56:47.315, 1592535407315
6, 18441.33, 8757.64, -187500.02, 187500.00, -187500.02, -187500.02, -187500.02, -187500.02, 0.000, 0.000, 0.000, 20:56:47.315, 1592535407315
7, 18445.96, 9170.27, -187500.02, 187500.00, -187500.02, -187500.02, -187500.02, -187500.02, 0.000, 0.000, 0.000, 20:56:47.316, 1592535407316
8, 18420.59, 8824.00, -187500.02, 187500.00, -187500.02, -187500.02, -187500.02, -187500.02, 0.020, -0.040, 0.982, 20:56:47.330, 1592535407330
9, 18410.19, 8423.08, -187500.02, 187500.00, -187500.02, -187500.02, -187500.02, -187500.02, 0.000, 0.000, 0.000, 20:56:47.331, 1592535407331
10, 18418.04, 8684.73, -187500.02, 187500.00, -187500.02, -187500.02, -187500.02, -187500.02, 0.000, 0.000, 0.000, 20:56:47.331, 1592535407331
11, 18417.35, 9183.26, -187500.02, 187500.00, -187500.02, -187500.02, -187500.02, -187500.02, 0.000, 0.000, 0.000, 20:56:47.331, 1592535407331
12, 18421.73, 8985.67, -187500.02, 187500.00, -187500.02, -187500.02, -187500.02, -187500.02, 0.000, 0.000, 0.000, 20:56:47.345, 1592535407345
13, 18424.05, 8484.30, -187500.02, 187500.00, -187500.02, -187500.02, -187500.02, -187500.02, 0.000, 0.000, 0.000, 20:56:47.345, 1592535407345
14, 18427.22, 8634.10, -187500.02, 187500.00, -187500.02, -187500.02, -187500.02, -187500.02, 0.000, 0.000, 0.000, 20:56:47.345, 1592535407345
15, 18418.66, 9166.70, -187500.02, 187500.00, -187500.02, -187500.02, -187500.02, -187500.02, 0.000, 0.000, 0.000, 20:56:47.345, 1592535407345
16, 18422.73, 9099.53, -187500.02, 187500.00, -187500.02, -187500.02, -187500.02, -187500.02, 0.000, 0.000, 0.000, 20:56:47.359, 1592535407359
17, 18410.64, 8514.70, -187500.02, 187500.00, -187500.02, -187500.02, -187500.02, -187500.02, 0.014, -0.036, 0.980, 20:56:47.359, 1592535407359
18, 18413.70, 8540.40, -187500.02, 187500.00, -187500.02, -187500.02, -187500.02, -187500.02, 0.000, 0.000, 0.000, 20:56:47.359, 1592535407359
19, 18423.11, 9104.33, -187500.02, 187500.00, -187500.02, -187500.02, -187500.02, -187500.02, 0.000, 0.000, 0.000, 20:56:47.375, 1592535407375
20, 18431.45, 9197.83, -187500.02, 187500.00, -187500.02, -187500.02, -187500.02, -187500.02, 0.000, 0.000, 0.000, 20:56:47.375, 1592535407375
21, 18417.37, 8599.23, -187500.02, 187500.00, -187500.02, -187500.02, -187500.02, -187500.02, 0.000, 0.000, 0.000, 20:56:47.375, 1592535407375
22, 18401.81, 8485.97, -187500.02, 187500.00, -187500.02, -187500.02, -187500.02, -187500.02, 0.000, 0.000, 0.000, 20:56:47.375, 1592535407375
23, 18410.44, 9017.79, -187500.02, 187500.00, -187500.02, -187500.02, -187500.02, -187500.02, 0.000, 0.000, 0.000, 20:56:47.391, 1592535407391
24, 18416.36, 9262.88, -187500.02, 187500.00, -187500.02, -187500.02, -187500.02, -187500.02, 0.000, 0.000, 0.000, 20:56:47.392, 1592535407392
25, 18404.74, 8675.65, -187500.02, 187500.00, -187500.02, -187500.02, -187500.02, -187500.02, 0.000, 0.000, 0.000, 20:56:47.392, 1592535407392
26, 18403.49, 8412.64, -187500.02, 187500.00, -187500.02, -187500.02, -187500.02, -187500.02, 0.000, 0.000, 0.000, 20:56:47.392, 1592535407392
27, 18412.76, 8883.88, -187500.02, 187500.00, -187500.02, -187500.02, -187500.02, -187500.02, 0.024, -0.034, 0.978, 20:56:47.406, 1592535407406
28, 18424.99, 9275.19, -187500.02, 187500.00, -187500.02, -187500.02, -187500.02, -187500.02, 0.000, 0.000, 0.000, 20:56:47.407, 1592535407407
29, 18409.12, 8766.15, -187500.02, 187500.00, -187500.02, -187500.02, -187500.02, -187500.02, 0.000, 0.000, 0.000, 20:56:47.408, 1592535407408
30, 18394.50, 8363.69, -187500.02, 187500.00, -187500.02, -187500.02, -187500.02, -187500.02, 0.000, 0.000, 0.000, 20:56:47.408, 1592535407408
31, 18410.62, 8768.41, -187500.02, 187500.00, -187500.02, -187500.02, -187500.02, -187500.02, 0.000, 0.000, 0.000, 20:56:47.419, 1592535407419
32, 18414.17, 9269.94, -187500.02, 187500.00, -187500.02, -187500.02, -187500.02, -187500.02, 0.000, 0.000, 0.000, 20:56:47.419, 1592535407419
33, 18403.67, 8876.75, -187500.02, 187500.00, -187500.02, -187500.02, -187500.02, -187500.02, 0.000, 0.000, 0.000, 20:56:47.419, 1592535407419
34, 18394.01, 8364.65, -187500.02, 187500.00, -187500.02, -187500.02, -187500.02, -187500.02, 0.000, 0.000, 0.000, 20:56:47.435, 1592535407435
35, 18402.91, 8657.32, -187500.02, 187500.00, -187500.02, -187500.02, -187500.02, -187500.02, 0.000, 0.000, 0.000, 20:56:47.435, 1592535407435
36, 18415.58, 9263.32, -187500.02, 187500.00, -187500.02, -187500.02, -187500.02, -187500.02, 0.000, 0.000, 0.000, 20:56:47.435, 1592535407435
37, 18407.85, 9041.93, -187500.02, 187500.00, -187500.02, -187500.02, -187500.02, -187500.02, 0.024, -0.034, 0.972, 20:56:47.435, 1592535407435
38, 18400.87, 8435.37, -187500.02, 187500.00, -187500.02, -187500.02, -187500.02, -187500.02, 0.000, 0.000, 0.000, 20:56:47.449, 1592535407449
39, 18401.50, 8595.34, -187500.02, 187500.00, -187500.02, -187500.02, -187500.02, -187500.02, 0.000, 0.000, 0.000, 20:56:47.450, 1592535407450
40, 18420.16, 9249.51, -187500.02, 187500.00, -187500.02, -187500.02, -187500.02, -187500.02, 0.000, 0.000, 0.000, 20:56:47.450, 1592535407450
41, 18419.13, 9198.41, -187500.02, 187500.00, -187500.02, -187500.02, -187500.02, -187500.02, 0.000, 0.000, 0.000, 20:56:47.450, 1592535407450
42, 18404.07, 8507.97, -187500.02, 187500.00, -187500.02, -187500.02, -187500.02, -187500.02, 0.000, 0.000, 0.000, 20:56:47.464, 1592535407464
43, 18407.87, 8501.26, -187500.02, 187500.00, -187500.02, -187500.02, -187500.02, -187500.02, 0.000, 0.000, 0.000, 20:56:47.465, 1592535407465
44, 18417.30, 9139.56, -187500.02, 187500.00, -187500.02, -187500.02, -187500.02, -187500.02, 0.000, 0.000, 0.000, 20:56:47.465, 1592535407465
45, 18413.95, 9264.44, -187500.02, 187500.00, -187500.02, -187500.02, -187500.02, -187500.02, 0.000, 0.000, 0.000, 20:56:47.465, 1592535407465
46, 18397.83, 8560.29, -187500.02, 187500.00, -187500.02, -187500.02, -187500.02, -187500.02, 0.000, 0.000, 0.000, 20:56:47.479, 1592535407479
47, 18395.31, 8387.51, -187500.02, 187500.00, -187500.02, -187500.02, -187500.02, -187500.02, 0.020, -0.030, 0.972, 20:56:47.479, 1592535407479
48, 18409.70, 9001.25, -187500.02, 187500.00, -187500.02, -187500.02, -187500.02, -187500.02, 0.000, 0.000, 0.000, 20:56:47.479, 1592535407479
49, 18402.21, 9277.58, -187500.02, 187500.00, -187500.02, -187500.02, -187500.02, -187500.02, 0.000, 0.000, 0.000, 20:56:47.495, 1592535407495
50, 18380.55, 8608.28, -187500.02, 187500.00, -187500.02, -187500.02, -187500.02, -187500.02, 0.000, 0.000, 0.000, 20:56:47.496, 1592535407496
51, 18373.56, 8285.77, -187500.02, 187500.00, -187500.02, -187500.02, -187500.02, -187500.02, 0.000, 0.000, 0.000, 20:56:47.496, 1592535407496
52, 18386.43, 8825.90, -187500.02, 187500.00, -187500.02, -187500.02, -187500.02, -187500.02, 0.000, 0.000, 0.000, 20:56:47.496, 1592535407496
53, 18383.97, 9268.31, -187500.02, 187500.00, -187500.02, -187500.02, -187500.02, -187500.02, 0.000, 0.000, 0.000, 20:56:47.511, 1592535407511
54, 18373.09, 8711.95, -187500.02, 187500.00, -187500.02, -187500.02, -187500.02, -187500.02, 0.000, 0.000, 0.000, 20:56:47.512, 1592535407512
55, 18366.72, 8244.02, -187500.02, 187500.00, -187500.02, -187500.02, -187500.02, -187500.02, 0.000, 0.000, 0.000, 20:56:47.512, 1592535407512
56, 18365.47, 8649.92, -187500.02, 187500.00, -187500.02, -187500.02, -187500.02, -187500.02, 0.000, 0.000, 0.000, 20:56:47.513, 1592535407513
57, 18367.61, 9219.80, -187500.02, 187500.00, -187500.02, -187500.02, -187500.02, -187500.02, 0.018, -0.034, 0.966, 20:56:47.526, 1592535407526
58, 18354.40, 8811.68, -187500.02, 187500.00, -187500.02, -187500.02, -187500.02, -187500.02, 0.000, 0.000, 0.000, 20:56:47.527, 1592535407527
59, 18335.40, 8194.69, -187500.02, 187500.00, -187500.02, -187500.02, -187500.02, -187500.02, 0.000, 0.000, 0.000, 20:56:47.528, 1592535407528
60, 18298.46, 8446.19, -187500.02, 187500.00, -187500.02, -187500.02, -187500.02, -187500.02, 0.000, 0.000, 0.000, 20:56:47.529, 1592535407529
61, 18298.77, 9096.38, -187500.02, 187500.00, -187500.02, -187500.02, -187500.02, -187500.02, 0.000, 0.000, 0.000, 20:56:47.540, 1592535407540
62, 18276.93, 8846.69, -187500.02, 187500.00, -187500.02, -187500.02, -187500.02, -187500.02, 0.000, 0.000, 0.000, 20:56:47.541, 1592535407541
63, 18257.42, 8091.20, -187500.02, 187500.00, -187500.02, -187500.02, -187500.02, -187500.02, 0.000, 0.000, 0.000, 20:56:47.541, 1592535407541
64, 18269.67, 8222.49, -187500.02, 187500.00, -187500.02, -187500.02, -187500.02, -187500.02, 0.000, 0.000, 0.000, 20:56:47.555, 1592535407555
65, 18284.87, 8936.23, -187500.02, 187500.00, -187500.02, -187500.02, -187500.02, -187500.02, 0.000, 0.000, 0.000, 20:56:47.555, 1592535407555
66, 18244.19, 8864.01, -187500.02, 187500.00, -187500.02, -187500.02, -187500.02, -187500.02, 0.000, 0.000, 0.000, 20:56:47.555, 1592535407555
67, 18204.38, 8072.29, -187500.02, 187500.00, -187500.02, -187500.02, -187500.02, -187500.02, 0.016, -0.036, 0.974, 20:56:47.556, 1592535407556
68, 18207.66, 8039.34, -187500.02, 187500.00, -187500.02, -187500.02, -187500.02, -187500.02, 0.000, 0.000, 0.000, 20:56:47.569, 1592535407569
69, 18233.35, 8803.08, -187500.02, 187500.00, -187500.02, -187500.02, -187500.02, -187500.02, 0.000, 0.000, 0.000, 20:56:47.569, 1592535407569
70, 18242.13, 8996.55, -187500.02, 187500.00, -187500.02, -187500.02, -187500.02, -187500.02, 0.000, 0.000, 0.000, 20:56:47.569, 1592535407569
71, 18242.22, 8250.34, -187500.02, 187500.00, -187500.02, -187500.02, -187500.02, -187500.02, 0.000, 0.000, 0.000, 20:56:47.570, 1592535407570
72, 18192.55, 8018.06, -187500.02, 187500.00, -187500.02, -187500.02, -187500.02, -187500.02, 0.000, 0.000, 0.000, 20:56:47.585, 1592535407585
73, 18196.80, 8698.83, -187500.02, 187500.00, -187500.02, -187500.02, -187500.02, -187500.02, 0.000, 0.000, 0.000, 20:56:47.585, 1592535407585
74, 18220.47, 9096.22, -187500.02, 187500.00, -187500.02, -187500.02, -187500.02, -187500.02, 0.000, 0.000, 0.000, 20:56:47.585, 1592535407585
75, 18188.35, 8426.65, -187500.02, 187500.00, -187500.02, -187500.02, -187500.02, -187500.02, 0.000, 0.000, 0.000, 20:56:47.586, 1592535407586
76, 18207.44, 8094.97, -187500.02, 187500.00, -187500.02, -187500.02, -187500.02, -187500.02, 0.000, 0.000, 0.000, 20:56:47.599, 1592535407599
77, 18265.69, 8703.28, -187500.02, 187500.00, -187500.02, -187500.02, -187500.02, -187500.02, 0.014, -0.034, 0.978, 20:56:47.599, 1592535407599
78, 18265.64, 9220.21, -187500.02, 187500.00, -187500.02, -187500.02, -187500.02, -187500.02, 0.000, 0.000, 0.000, 20:56:47.599, 1592535407599
79, 18206.90, 8595.39, -187500.02, 187500.00, -187500.02, -187500.02, -187500.02, -187500.02, 0.000, 0.000, 0.000, 20:56:47.615, 1592535407615
80, 18205.38, 8080.69, -187500.02, 187500.00, -187500.02, -187500.02, -187500.02, -187500.02, 0.000, 0.000, 0.000, 20:56:47.615, 1592535407615
81, 18281.96, 8603.10, -187500.02, 187500.00, -187500.02, -187500.02, -187500.02, -187500.02, 0.000, 0.000, 0.000, 20:56:47.615, 1592535407615
82, 18263.56, 9253.64, -187500.02, 187500.00, -187500.02, -187500.02, -187500.02, -187500.02, 0.000, 0.000, 0.000, 20:56:47.615, 1592535407615
83, 18245.13, 8832.54, -187500.02, 187500.00, -187500.02, -187500.02, -187500.02, -187500.02, 0.000, 0.000, 0.000, 20:56:47.629, 1592535407629
84, 18251.07, 8135.34, -187500.02, 187500.00, -187500.02, -187500.02, -187500.02, -187500.02, 0.000, 0.000, 0.000, 20:56:47.630, 1592535407630
85, 18265.53, 8468.25, -187500.02, 187500.00, -187500.02, -187500.02, -187500.02, -187500.02, 0.000, 0.000, 0.000, 20:56:47.630, 1592535407630
86, 18295.66, 9256.13, -187500.02, 187500.00, -187500.02, -187500.02, -187500.02, -187500.02, 0.000, 0.000, 0.000, 20:56:47.630, 1592535407630
87, 18312.18, 9104.78, -187500.02, 187500.00, -187500.02, -187500.02, -187500.02, -187500.02, 0.018, -0.036, 0.972, 20:56:47.646, 1592535407646
88, 18299.22, 8367.06, -187500.02, 187500.00, -187500.02, -187500.02, -187500.02, -187500.02, 0.000, 0.000, 0.000, 20:56:47.646, 1592535407646
89, 18308.49, 8528.31, -187500.02, 187500.00, -187500.02, -187500.02, -187500.02, -187500.02, 0.000, 0.000, 0.000, 20:56:47.646, 1592535407646
90, 18335.65, 9326.91, -187500.02, 187500.00, -187500.02, -187500.02, -187500.02, -187500.02, 0.000, 0.000, 0.000, 20:56:47.646, 1592535407646
91, 18330.73, 9336.48, -187500.02, 187500.00, -187500.02, -187500.02, -187500.02, -187500.02, 0.000, 0.000, 0.000, 20:56:47.662, 1592535407662
92, 18321.77, 8532.20, -187500.02, 187500.00, -187500.02, -187500.02, -187500.02, -187500.02, 0.000, 0.000, 0.000, 20:56:47.662, 1592535407662
93, 18349.20, 8491.83, -187500.02, 187500.00, -187500.02, -187500.02, -187500.02, -187500.02, 0.000, 0.000, 0.000, 20:56:47.662, 1592535407662
94, 18378.27, 9267.17, -187500.02, 187500.00, -187500.02, -187500.02, -187500.02, -187500.02, 0.000, 0.000, 0.000, 20:56:47.676, 1592535407676
95, 18375.37, 9484.98, -187500.02, 187500.00, -187500.02, -187500.02, -187500.02, -187500.02, 0.000, 0.000, 0.000, 20:56:47.677, 1592535407677
96, 18354.51, 8673.91, -187500.02, 187500.00, -187500.02, -187500.02, -187500.02, -187500.02, 0.000, 0.000, 0.000, 20:56:47.678, 1592535407678
97, 18355.01, 8427.75, -187500.02, 187500.00, -187500.02, -187500.02, -187500.02, -187500.02, 0.024, -0.036, 0.978, 20:56:47.679, 1592535407679
98, 18372.11, 9124.23, -187500.02, 187500.00, -187500.02, -187500.02, -187500.02, -187500.02, 0.000, 0.000, 0.000, 20:56:47.691, 1592535407691
99, 18373.58, 9522.31, -187500.02, 187500.00, -187500.02, -187500.02, -187500.02, -187500.02, 0.000, 0.000, 0.000, 20:56:47.692, 1592535407692
100, 18357.22, 8826.61, -187500.02, 187500.00, -187500.02, -187500.02, -187500.02, -187500.02, 0.000, 0.000, 0.000, 20:56:47.693, 1592535407693
101, 18359.34, 8426.21, -187500.02, 187500.00, -187500.02, -187500.02, -187500.02, -187500.02, 0.000, 0.000, 0.000, 20:56:47.695, 1592535407695
102, 18384.62, 9017.25, -187500.02, 187500.00, -187500.02, -187500.02, -187500.02, -187500.02, 0.000, 0.000, 0.000, 20:56:47.704, 1592535407704
103, 18391.10, 9577.70, -187500.02, 187500.00, -187500.02, -187500.02, -187500.02, -187500.02, 0.000, 0.000, 0.000, 20:56:47.705, 1592535407705
104, 18376.13, 9022.30, -187500.02, 187500.00, -187500.02, -187500.02, -187500.02, -187500.02, 0.000, 0.000, 0.000, 20:56:47.705, 1592535407705
105, 18368.62, 8439.88, -187500.02, 187500.00, -187500.02, -187500.02, -187500.02, -187500.02, 0.000, 0.000, 0.000, 20:56:47.705, 1592535407705
106, 18372.28, 8890.70, -187500.02, 187500.00, -187500.02, -187500.02, -187500.02, -187500.02, 0.022, -0.038, 0.980, 20:56:47.719, 1592535407719
107, 18386.05, 9560.38, -187500.02, 187500.00, -187500.02, -187500.02, -187500.02, -187500.02, 0.000, 0.000, 0.000, 20:56:47.719, 1592535407719
108, 18381.69, 9138.96, -187500.02, 187500.00, -187500.02, -187500.02, -187500.02, -187500.02, 0.000, 0.000, 0.000, 20:56:47.720, 1592535407720
109, 18373.11, 8396.88, -187500.02, 187500.00, -187500.02, -187500.02, -187500.02, -187500.02, 0.000, 0.000, 0.000, 20:56:47.734, 1592535407734
110, 18376.84, 8653.54, -187500.02, 187500.00, -187500.02, -187500.02, -187500.02, -187500.02, 0.000, 0.000, 0.000, 20:56:47.734, 1592535407734
111, 18391.84, 9541.13, -187500.02, 187500.00, -187500.02, -187500.02, -187500.02, -187500.02, 0.000, 0.000, 0.000, 20:56:47.734, 1592535407734
112, 18389.16, 9455.01, -187500.02, 187500.00, -187500.02, -187500.02, -187500.02, -187500.02, 0.000, 0.000, 0.000, 20:56:47.734, 1592535407734
113, 18377.07, 8722.63, -187500.02, 187500.00, -187500.02, -187500.02, -187500.02, -187500.02, 0.000, 0.000, 0.000, 20:56:47.750, 1592535407750
114, 18388.09, 8895.19, -187500.02, 187500.00, -187500.02, -187500.02, -187500.02, -187500.02, 0.000, 0.000, 0.000, 20:56:47.750, 1592535407750
115, 18407.18, 9691.02, -187500.02, 187500.00, -187500.02, -187500.02, -187500.02, -187500.02, 0.000, 0.000, 0.000, 20:56:47.750, 1592535407750
116, 18401.65, 9701.22, -187500.02, 187500.00, -187500.02, -187500.02, -187500.02, -187500.02, 0.016, -0.036, 0.974, 20:56:47.751, 1592535407751
117, 18379.23, 8870.33, -187500.02, 187500.00, -187500.02, -187500.02, -187500.02, -187500.02, 0.000, 0.000, 0.000, 20:56:47.765, 1592535407765
118, 18382.95, 8797.71, -187500.02, 187500.00, -187500.02, -187500.02, -187500.02, -187500.02, 0.000, 0.000, 0.000, 20:56:47.765, 1592535407765
119, 18414.44, 9559.30, -187500.02, 187500.00, -187500.02, -187500.02, -187500.02, -187500.02, 0.000, 0.000, 0.000, 20:56:47.765, 1592535407765
120, 18418.35, 9799.38, -187500.02, 187500.00, -187500.02, -187500.02, -187500.02, -187500.02, 0.000, 0.000, 0.000, 20:56:47.765, 1592535407765
121, 18384.26, 8985.87, -187500.02, 187500.00, -187500.02, -187500.02, -187500.02, -187500.02, 0.000, 0.000, 0.000, 20:56:47.780, 1592535407780
122, 18383.06, 8705.85, -187500.02, 187500.00, -187500.02, -187500.02, -187500.02, -187500.02, 0.000, 0.000, 0.000, 20:56:47.780, 1592535407780
123, 18404.94, 9410.82, -187500.02, 187500.00, -187500.02, -187500.02, -187500.02, -187500.02, 0.000, 0.000, 0.000, 20:56:47.780, 1592535407780
124, 18413.17, 9904.06, -187500.02, 187500.00, -187500.02, -187500.02, -187500.02, -187500.02, 0.000, 0.000, 0.000, 20:56:47.780, 1592535407780
125, 18389.63, 9218.17, -187500.02, 187500.00, -187500.02, -187500.02, -187500.02, -187500.02, 0.000, 0.000, 0.000, 20:56:47.796, 1592535407796
126, 18377.29, 8731.78, -187500.02, 187500.00, -187500.02, -187500.02, -187500.02, -187500.02, 0.020, -0.038, 0.974, 20:56:47.796, 1592535407796
127, 18409.75, 9335.63, -187500.02, 187500.00, -187500.02, -187500.02, -187500.02, -187500.02, 0.000, 0.000, 0.000, 20:56:47.796, 1592535407796
128, 18432.66, 9952.40, -187500.02, 187500.00, -187500.02, -187500.02, -187500.02, -187500.02, 0.000, 0.000, 0.000, 20:56:47.811, 1592535407811
129, 18402.71, 9441.33, -187500.02, 187500.00, -187500.02, -187500.02, -187500.02, -187500.02, 0.000, 0.000, 0.000, 20:56:47.812, 1592535407812
130, 18394.05, 8897.36, -187500.02, 187500.00, -187500.02, -187500.02, -187500.02, -187500.02, 0.000, 0.000, 0.000, 20:56:47.813, 1592535407813
131, 18419.65, 9374.28, -187500.02, 187500.00, -187500.02, -187500.02, -187500.02, -187500.02, 0.000, 0.000, 0.000, 20:56:47.813, 1592535407813
132, 18435.58, 10089.33, -187500.02, 187500.00, -187500.02, -187500.02, -187500.02, -187500.02, 0.000, 0.000, 0.000, 20:56:47.827, 1592535407827
133, 18411.78, 9667.60, -187500.02, 187500.00, -187500.02, -187500.02, -187500.02, -187500.02, 0.000, 0.000, 0.000, 20:56:47.828, 1592535407828
134, 18384.40, 8935.40, -187500.02, 187500.00, -187500.02, -187500.02, -187500.02, -187500.02, 0.000, 0.000, 0.000, 20:56:47.829, 1592535407829
135, 18395.69, 9244.46, -187500.02, 187500.00, -187500.02, -187500.02, -187500.02, -187500.02, 0.000, 0.000, 0.000, 20:56:47.829, 1592535407829
136, 18420.68, 10026.54, -187500.02, 187500.00, -187500.02, -187500.02, -187500.02, -187500.02, 0.018, -0.038, 0.976, 20:56:47.841, 1592535407841
137, 18406.44, 9862.06, -187500.02, 187500.00, -187500.02, -187500.02, -187500.02, -187500.02, 0.000, 0.000, 0.000, 20:56:47.842, 1592535407842
138, 18388.98, 9077.56, -187500.02, 187500.00, -187500.02, -187500.02, -187500.02, -187500.02, 0.000, 0.000, 0.000, 20:56:47.843, 1592535407843
139, 18407.33, 9135.16, -187500.02, 187500.00, -187500.02, -187500.02, -187500.02, -187500.02, 0.000, 0.000, 0.000, 20:56:47.843, 1592535407843
140, 18420.05, 9921.18, -187500.02, 187500.00, -187500.02, -187500.02, -187500.02, -187500.02, 0.000, 0.000, 0.000, 20:56:47.855, 1592535407855
141, 18421.59, 9985.44, -187500.02, 187500.00, -187500.02, -187500.02, -187500.02, -187500.02, 0.000, 0.000, 0.000, 20:56:47.855, 1592535407855
142, 18401.65, 9081.25, -187500.02, 187500.00, -187500.02, -187500.02, -187500.02, -187500.02, 0.000, 0.000, 0.000, 20:56:47.855, 1592535407855
143, 18404.07, 8844.21, -187500.02, 187500.00, -187500.02, -187500.02, -187500.02, -187500.02, 0.000, 0.000, 0.000, 20:56:47.869, 1592535407869
144, 18430.04, 9611.12, -187500.02, 187500.00, -187500.02, -187500.02, -187500.02, -187500.02, 0.000, 0.000, 0.000, 20:56:47.869, 1592535407869
145, 18427.20, 9943.46, -187500.02, 187500.00, -187500.02, -187500.02, -187500.02, -187500.02, 0.000, 0.000, 0.000, 20:56:47.869, 1592535407869
146, 18393.74, 9176.84, -187500.02, 187500.00, -187500.02, -187500.02, -187500.02, -187500.02, 0.022, -0.032, 0.978, 20:56:47.869, 1592535407869
147, 18392.15, 8895.30, -187500.02, 187500.00, -187500.02, -187500.02, -187500.02, -187500.02, 0.000, 0.000, 0.000, 20:56:47.885, 1592535407885
148, 18411.98, 9543.32, -187500.02, 187500.00, -187500.02, -187500.02, -187500.02, -187500.02, 0.000, 0.000, 0.000, 20:56:47.885, 1592535407885
149, 18424.72, 9974.87, -187500.02, 187500.00, -187500.02, -187500.02, -187500.02, -187500.02, 0.000, 0.000, 0.000, 20:56:47.885, 1592535407885
150, 18406.79, 9323.16, -187500.02, 187500.00, -187500.02, -187500.02, -187500.02, -187500.02, 0.000, 0.000, 0.000, 20:56:47.886, 1592535407886
151, 18393.52, 8835.60, -187500.02, 187500.00, -187500.02, -187500.02, -187500.02, -187500.02, 0.000, 0.000, 0.000, 20:56:47.900, 1592535407900
152, 18404.96, 9345.29, -187500.02, 187500.00, -187500.02, -187500.02, -187500.02, -187500.02, 0.000, 0.000, 0.000, 20:56:47.900, 1592535407900
153, 18413.68, 9943.91, -187500.02, 187500.00, -187500.02, -187500.02, -187500.02, -187500.02, 0.000, 0.000, 0.000, 20:56:47.900, 1592535407900
154, 18407.53, 9420.43, -187500.02, 187500.00, -187500.02, -187500.02, -187500.02, -187500.02, 0.000, 0.000, 0.000, 20:56:47.900, 1592535407900
155, 18403.38, 8780.97, -187500.02, 187500.00, -187500.02, -187500.02, -187500.02, -187500.02, 0.000, 0.000, 0.000, 20:56:47.915, 1592535407915
156, 18414.57, 9213.01, -187500.02, 187500.00, -187500.02, -187500.02, -187500.02, -187500.02, 0.024, -0.034, 0.974, 20:56:47.915, 1592535407915
157, 18430.04, 9962.15, -187500.02, 187500.00, -187500.02, -187500.02, -187500.02, -187500.02, 0.000, 0.000, 0.000, 20:56:47.915, 1592535407915
158, 18406.30, 9615.56, -187500.02, 187500.00, -187500.02, -187500.02, -187500.02, -187500.02, 0.000, 0.000, 0.000, 20:56:47.930, 1592535407930
159, 18386.10, 8817.85, -187500.02, 187500.00, -187500.02, -187500.02, -187500.02, -187500.02, 0.000, 0.000, 0.000, 20:56:47.930, 1592535407930
160, 18400.02, 9051.79, -187500.02, 187500.00, -187500.02, -187500.02, -187500.02, -187500.02, 0.000, 0.000, 0.000, 20:56:47.930, 1592535407930
161, 18414.91, 9870.69, -187500.02, 187500.00, -187500.02, -187500.02, -187500.02, -187500.02, 0.000, 0.000, 0.000, 20:56:47.930, 1592535407930
162, 18422.38, 9782.08, -187500.02, 187500.00, -187500.02, -187500.02, -187500.02, -187500.02, 0.000, 0.000, 0.000, 20:56:47.946, 1592535407946
163, 18405.45, 8862.85, -187500.02, 187500.00, -187500.02, -187500.02, -187500.02, -187500.02, 0.000, 0.000, 0.000, 20:56:47.946, 1592535407946
164, 18417.95, 8849.19, -187500.02, 187500.00, -187500.02, -187500.02, -187500.02, -187500.02, 0.000, 0.000, 0.000, 20:56:47.946, 1592535407946
165, 18414.46, 9657.83, -187500.02, 187500.00, -187500.02, -187500.02, -187500.02, -187500.02, 0.000, 0.000, 0.000, 20:56:47.946, 1592535407946
166, 18408.52, 9760.09, -187500.02, 187500.00, -187500.02, -187500.02, -187500.02, -187500.02, 0.024, -0.032, 0.982, 20:56:47.961, 1592535407961
167, 18396.00, 8902.50, -187500.02, 187500.00, -187500.02, -187500.02, -187500.02, -187500.02, 0.000, 0.000, 0.000, 20:56:47.962, 1592535407962
168, 18394.43, 8731.22, -187500.02, 187500.00, -187500.02, -187500.02, -187500.02, -187500.02, 0.000, 0.000, 0.000, 20:56:47.962, 1592535407962
169, 18403.80, 9475.11, -187500.02, 187500.00, -187500.02, -187500.02, -187500.02, -187500.02, 0.000, 0.000, 0.000, 20:56:47.962, 1592535407962
170, 18411.09, 9800.08, -187500.02, 187500.00, -187500.02, -187500.02, -187500.02, -187500.02, 0.000, 0.000, 0.000, 20:56:47.975, 1592535407975
171, 18389.47, 9052.79, -187500.02, 187500.00, -187500.02, -187500.02, -187500.02, -187500.02, 0.000, 0.000, 0.000, 20:56:47.975, 1592535407975
172, 18394.48, 8711.17, -187500.02, 187500.00, -187500.02, -187500.02, -187500.02, -187500.02, 0.000, 0.000, 0.000, 20:56:47.976, 1592535407976
173, 18422.04, 9329.89, -187500.02, 187500.00, -187500.02, -187500.02, -187500.02, -187500.02, 0.000, 0.000, 0.000, 20:56:47.991, 1592535407991
174, 18438.67, 9831.35, -187500.02, 187500.00, -187500.02, -187500.02, -187500.02, -187500.02, 0.000, 0.000, 0.000, 20:56:47.992, 1592535407992
175, 18427.47, 9220.79, -187500.02, 187500.00, -187500.02, -187500.02, -187500.02, -187500.02, 0.000, 0.000, 0.000, 20:56:47.993, 1592535407993
176, 18392.38, 8705.49, -187500.02, 187500.00, -187500.02, -187500.02, -187500.02, -187500.02, 0.020, -0.034, 0.984, 20:56:47.994, 1592535407994
177, 18415.51, 9243.85, -187500.02, 187500.00, -187500.02, -187500.02, -187500.02, -187500.02, 0.000, 0.000, 0.000, 20:56:48.004, 1592535408004
178, 18428.12, 9909.58, -187500.02, 187500.00, -187500.02, -187500.02, -187500.02, -187500.02, 0.000, 0.000, 0.000, 20:56:48.005, 1592535408005
179, 18400.92, 9438.22, -187500.02, 187500.00, -187500.02, -187500.02, -187500.02, -187500.02, 0.000, 0.000, 0.000, 20:56:48.005, 1592535408005
180, 18388.76, 8763.05, -187500.02, 187500.00, -187500.02, -187500.02, -187500.02, -187500.02, 0.000, 0.000, 0.000, 20:56:48.005, 1592535408005
181, 18404.83, 9109.92, -187500.02, 187500.00, -187500.02, -187500.02, -187500.02, -187500.02, 0.000, 0.000, 0.000, 20:56:48.020, 1592535408020
182, 18421.50, 9863.15, -187500.02, 187500.00, -187500.02, -187500.02, -187500.02, -187500.02, 0.000, 0.000, 0.000, 20:56:48.021, 1592535408021
183, 18402.17, 9585.17, -187500.02, 187500.00, -187500.02, -187500.02, -187500.02, -187500.02, 0.000, 0.000, 0.000, 20:56:48.021, 1592535408021
184, 18386.19, 8833.92, -187500.02, 187500.00, -187500.02, -187500.02, -187500.02, -187500.02, 0.000, 0.000, 0.000, 20:56:48.021, 1592535408021
185, 18396.58, 9074.00, -187500.02, 187500.00, -187500.02, -187500.02, -187500.02, -187500.02, 0.000, 0.000, 0.000, 20:56:48.034, 1592535408034
186, 18422.78, 9887.47, -187500.02, 187500.00, -187500.02, -187500.02, -187500.02, -187500.02, 0.022, -0.034, 0.976, 20:56:48.034, 1592535408034
187, 18417.52, 9859.13, -187500.02, 187500.00, -187500.02, -187500.02, -187500.02, -187500.02, 0.000, 0.000, 0.000, 20:56:48.034, 1592535408034
188, 18401.41, 9059.94, -187500.02, 187500.00, -187500.02, -187500.02, -187500.02, -187500.02, 0.000, 0.000, 0.000, 20:56:48.050, 1592535408050
189, 18402.93, 9065.11, -187500.02, 187500.00, -187500.02, -187500.02, -187500.02, -187500.02, 0.000, 0.000, 0.000, 20:56:48.050, 1592535408050
190, 18421.21, 9814.67, -187500.02, 187500.00, -187500.02, -187500.02, -187500.02, -187500.02, 0.000, 0.000, 0.000, 20:56:48.051, 1592535408051
191, 18423.60, 9963.98, -187500.02, 187500.00, -187500.02, -187500.02, -187500.02, -187500.02, 0.000, 0.000, 0.000, 20:56:48.051, 1592535408051
192, 18403.15, 9150.69, -187500.02, 187500.00, -187500.02, -187500.02, -187500.02, -187500.02, 0.000, 0.000, 0.000, 20:56:48.065, 1592535408065
193, 18395.84, 8933.72, -187500.02, 187500.00, -187500.02, -187500.02, -187500.02, -187500.02, 0.000, 0.000, 0.000, 20:56:48.065, 1592535408065
194, 18416.05, 9640.06, -187500.02, 187500.00, -187500.02, -187500.02, -187500.02, -187500.02, 0.000, 0.000, 0.000, 20:56:48.065, 1592535408065
195, 18425.88, 10006.63, -187500.02, 187500.00, -187500.02, -187500.02, -187500.02, -187500.02, 0.022, -0.030, 0.974, 20:56:48.065, 1592535408065
196, 18407.38, 9263.99, -187500.02, 187500.00, -187500.02, -187500.02, -187500.02, -187500.02, 0.000, 0.000, 0.000, 20:56:48.080, 1592535408080
197, 18390.70, 8865.80, -187500.02, 187500.00, -187500.02, -187500.02, -187500.02, -187500.02, 0.000, 0.000, 0.000, 20:56:48.080, 1592535408080
198, 18411.13, 9444.82, -187500.02, 187500.00, -187500.02, -187500.02, -187500.02, -187500.02, 0.000, 0.000, 0.000, 20:56:48.080, 1592535408080
199, 18434.24, 9942.08, -187500.02, 187500.00, -187500.02, -187500.02, -187500.02, -187500.02, 0.000, 0.000, 0.000, 20:56:48.080, 1592535408080
200, 18421.10, 9302.80, -187500.02, 187500.00, -187500.02, -187500.02, -187500.02, -187500.02, 0.000, 0.000, 0.000, 20:56:48.095, 1592535408095
201, 18398.10, 8754.66, -187500.02, 187500.00, -187500.02, -187500.02, -187500.02, -187500.02, 0.000, 0.000, 0.000, 20:56:48.096, 1592535408096
202, 18396.54, 9188.11, -187500.02, 187500.00, -187500.02, -187500.02, -187500.02, -187500.02, 0.000, 0.000, 0.000, 20:56:48.096, 1592535408096
203, 18412.34, 9790.20, -187500.02, 187500.00, -187500.02, -187500.02, -187500.02, -187500.02, 0.000, 0.000, 0.000, 20:56:48.111, 1592535408111
204, 18404.36, 9345.02, -187500.02, 187500.00, -187500.02, -187500.02, -187500.02, -187500.02, 0.000, 0.000, 0.000, 20:56:48.112, 1592535408112
205, 18395.28, 8682.31, -187500.02, 187500.00, -187500.02, -187500.02, -187500.02, -187500.02, 0.024, -0.032, 0.974, 20:56:48.113, 1592535408113
206, 18408.49, 8980.73, -187500.02, 187500.00, -187500.02, -187500.02, -187500.02, -187500.02, 0.000, 0.000, 0.000, 20:56:48.113, 1592535408113
207, 18420.81, 9684.50, -187500.02, 187500.00, -187500.02, -187500.02, -187500.02, -187500.02, 0.000, 0.000, 0.000, 20:56:48.127, 1592535408127
208, 18403.76, 9448.39, -187500.02, 187500.00, -187500.02, -187500.02, -187500.02, -187500.02, 0.000, 0.000, 0.000, 20:56:48.128, 1592535408128
209, 18387.01, 8708.91, -187500.02, 187500.00, -187500.02, -187500.02, -187500.02, -187500.02, 0.000, 0.000, 0.000, 20:56:48.129, 1592535408129
210, 18397.72, 8836.07, -187500.02, 187500.00, -187500.02, -187500.02, -187500.02, -187500.02, 0.000, 0.000, 0.000, 20:56:48.129, 1592535408129
211, 18420.70, 9556.71, -187500.02, 187500.00, -187500.02, -187500.02, -187500.02, -187500.02, 0.000, 0.000, 0.000, 20:56:48.141, 1592535408141
212, 18413.93, 9517.75, -187500.02, 187500.00, -187500.02, -187500.02, -187500.02, -187500.02, 0.000, 0.000, 0.000, 20:56:48.141, 1592535408141
213, 18383.37, 8709.56, -187500.02, 187500.00, -187500.02, -187500.02, -187500.02, -187500.02, 0.000, 0.000, 0.000, 20:56:48.142, 1592535408142
214, 18384.62, 8627.86, -187500.02, 187500.00, -187500.02, -187500.02, -187500.02, -187500.02, 0.000, 0.000, 0.000, 20:56:48.143, 1592535408143
215, 18407.51, 9360.31, -187500.02, 187500.00, -187500.02, -187500.02, -187500.02, -187500.02, 0.020, -0.034, 0.972, 20:56:48.155, 1592535408155
216, 18409.70, 9541.71, -187500.02, 187500.00, -187500.02, -187500.02, -187500.02, -187500.02, 0.000, 0.000, 0.000, 20:56:48.155, 1592535408155
217, 18394.66, 8763.00, -187500.02, 187500.00, -187500.02, -187500.02, -187500.02, -187500.02, 0.000, 0.000, 0.000, 20:56:48.155, 1592535408155
218, 18397.94, 8543.35, -187500.02, 187500.00, -187500.02, -187500.02, -187500.02, -187500.02, 0.000, 0.000, 0.000, 20:56:48.169, 1592535408169
219, 18417.90, 9227.98, -187500.02, 187500.00, -187500.02, -187500.02, -187500.02, -187500.02, 0.000, 0.000, 0.000, 20:56:48.169, 1592535408169
220, 18419.13, 9612.95, -187500.02, 187500.00, -187500.02, -187500.02, -187500.02, -187500.02, 0.000, 0.000, 0.000, 20:56:48.170, 1592535408170
221, 18402.26, 8903.12, -187500.02, 187500.00, -187500.02, -187500.02, -187500.02, -187500.02, 0.000, 0.000, 0.000, 20:56:48.170, 1592535408170
222, 18396.00, 8487.85, -187500.02, 187500.00, -187500.02, -187500.02, -187500.02, -187500.02, 0.000, 0.000, 0.000, 20:56:48.185, 1592535408185
223, 18414.51, 9056.99, -187500.02, 187500.00, -187500.02, -187500.02, -187500.02, -187500.02, 0.000, 0.000, 0.000, 20:56:48.185, 1592535408185
224, 18423.49, 9617.58, -187500.02, 187500.00, -187500.02, -187500.02, -187500.02, -187500.02, 0.000, 0.000, 0.000, 20:56:48.185, 1592535408185
225, 18406.21, 9048.30, -187500.02, 187500.00, -187500.02, -187500.02, -187500.02, -187500.02, 0.014, -0.032, 0.970, 20:56:48.185, 1592535408185
226, 18396.85, 8474.78, -187500.02, 187500.00, -187500.02, -187500.02, -187500.02, -187500.02, 0.000, 0.000, 0.000, 20:56:48.200, 1592535408200
227, 18404.02, 8938.66, -187500.02, 187500.00, -187500.02, -187500.02, -187500.02, -187500.02, 0.000, 0.000, 0.000, 20:56:48.200, 1592535408200
228, 18414.98, 9620.68, -187500.02, 187500.00, -187500.02, -187500.02, -187500.02, -187500.02, 0.000, 0.000, 0.000, 20:56:48.200, 1592535408200
229, 18400.38, 9247.79, -187500.02, 187500.00, -187500.02, -187500.02, -187500.02, -187500.02, 0.000, 0.000, 0.000, 20:56:48.200, 1592535408200
230, 18384.00, 8575.65, -187500.02, 187500.00, -187500.02, -187500.02, -187500.02, -187500.02, 0.000, 0.000, 0.000, 20:56:48.215, 1592535408215
231, 18398.70, 8871.67, -187500.02, 187500.00, -187500.02, -187500.02, -187500.02, -187500.02, 0.000, 0.000, 0.000, 20:56:48.215, 1592535408215
232, 18420.25, 9617.60, -187500.02, 187500.00, -187500.02, -187500.02, -187500.02, -187500.02, 0.000, 0.000, 0.000, 20:56:48.215, 1592535408215
233, 18409.30, 9425.17, -187500.02, 187500.00, -187500.02, -187500.02, -187500.02, -187500.02, 0.000, 0.000, 0.000, 20:56:48.229, 1592535408229
234, 18396.96, 8649.63, -187500.02, 187500.00, -187500.02, -187500.02, -187500.02, -187500.02, 0.000, 0.000, 0.000, 20:56:48.230, 1592535408230
235, 18420.59, 8757.23, -187500.02, 187500.00, -187500.02, -187500.02, -187500.02, -187500.02, 0.018, -0.030, 0.970, 20:56:48.230, 1592535408230
236, 18433.10, 9491.47, -187500.02, 187500.00, -187500.02, -187500.02, -187500.02, -187500.02, 0.000, 0.000, 0.000, 20:56:48.230, 1592535408230
237, 18394.77, 9456.75, -187500.02, 187500.00, -187500.02, -187500.02, -187500.02, -187500.02, 0.000, 0.000, 0.000, 20:56:48.246, 1592535408246
238, 18366.65, 8635.46, -187500.02, 187500.00, -187500.02, -187500.02, -187500.02, -187500.02, 0.000, 0.000, 0.000, 20:56:48.246, 1592535408246
239, 18374.23, 8555.82, -187500.02, 187500.00, -187500.02, -187500.02, -187500.02, -187500.02, 0.000, 0.000, 0.000, 20:56:48.246, 1592535408246
240, 18389.58, 9275.17, -187500.02, 187500.00, -187500.02, -187500.02, -187500.02, -187500.02, 0.000, 0.000, 0.000, 20:56:48.246, 1592535408246
241, 18399.40, 9527.52, -187500.02, 187500.00, -187500.02, -187500.02, -187500.02, -187500.02, 0.000, 0.000, 0.000, 20:56:48.262, 1592535408262
242, 18386.83, 8797.31, -187500.02, 187500.00, -187500.02, -187500.02, -187500.02, -187500.02, 0.000, 0.000, 0.000, 20:56:48.262, 1592535408262
243, 18392.33, 8554.64, -187500.02, 187500.00, -187500.02, -187500.02, -187500.02, -187500.02, 0.000, 0.000, 0.000, 20:56:48.263, 1592535408263
244, 18415.40, 9225.77, -187500.02, 187500.00, -187500.02, -187500.02, -187500.02, -187500.02, 0.000, 0.000, 0.000, 20:56:48.263, 1592535408263
245, 18420.72, 9693.01, -187500.02, 187500.00, -187500.02, -187500.02, -187500.02, -187500.02, 0.018, -0.028, 0.972, 20:56:48.276, 1592535408276
246, 18393.67, 9091.50, -187500.02, 187500.00, -187500.02, -187500.02, -187500.02, -187500.02, 0.000, 0.000, 0.000, 20:56:48.278, 1592535408278
247, 18392.49, 8702.58, -187500.02, 187500.00, -187500.02, -187500.02, -187500.02, -187500.02, 0.000, 0.000, 0.000, 20:56:48.279, 1592535408279
248, 18422.69, 9273.49, -187500.02, 187500.00, -187500.02, -187500.02, -187500.02, -187500.02, 0.000, 0.000, 0.000, 20:56:48.279, 1592535408279
249, 18421.86, 9910.83, -187500.02, 187500.00, -187500.02, -187500.02, -187500.02, -187500.02, 0.000, 0.000, 0.000, 20:56:48.291, 1592535408291
250, 18386.32, 9455.93, -187500.02, 187500.00, -187500.02, -187500.02, -187500.02, -187500.02, 0.000, 0.000, 0.000, 20:56:48.293, 1592535408293
251, 18367.39, 8906.10, -187500.02, 187500.00, -187500.02, -187500.02, -187500.02, -187500.02, 0.000, 0.000, 0.000, 20:56:48.294, 1592535408294
252, 18386.50, 9357.22, -187500.02, 187500.00, -187500.02, -187500.02, -187500.02, -187500.02, 0.000, 0.000, 0.000, 20:56:48.305, 1592535408305
253, 18400.25, 10093.44, -187500.02, 187500.00, -187500.02, -187500.02, -187500.02, -187500.02, 0.000, 0.000, 0.000, 20:56:48.305, 1592535408305
254, 18393.38, 9787.25, -187500.02, 187500.00, -187500.02, -187500.02, -187500.02, -187500.02, 0.000, 0.000, 0.000, 20:56:48.306, 1592535408306
255, 18378.86, 9098.12, -187500.02, 187500.00, -187500.02, -187500.02, -187500.02, -187500.02, 0.028, -0.034, 0.968, 20:56:48.307, 1592535408307
0, 18388.85, 9323.49, -187500.02, 187500.00, -187500.02, -187500.02, -187500.02, -187500.02, 0.000, 0.000, 0.000, 20:56:48.320, 1592535408320
1, 18412.29, 10098.47, -187500.02, 187500.00, -187500.02, -187500.02, -187500.02, -187500.02, 0.000, 0.000, 0.000, 20:56:48.321, 1592535408321
2, 18407.53, 9993.29, -187500.02, 187500.00, -187500.02, -187500.02, -187500.02, -187500.02, 0.000, 0.000, 0.000, 20:56:48.321, 1592535408321
3, 18381.52, 9207.42, -187500.02, 187500.00, -187500.02, -187500.02, -187500.02, -187500.02, 0.000, 0.000, 0.000, 20:56:48.321, 1592535408321
4, 18385.63, 9234.94, -187500.02, 187500.00, -187500.02, -187500.02, -187500.02, -187500.02, 0.000, 0.000, 0.000, 20:56:48.335, 1592535408335
5, 18406.41, 9965.91, -187500.02, 187500.00, -187500.02, -187500.02, -187500.02, -187500.02, 0.000, 0.000, 0.000, 20:56:48.335, 1592535408335
6, 18414.44, 10059.42, -187500.02, 187500.00, -187500.02, -187500.02, -187500.02, -187500.02, 0.000, 0.000, 0.000, 20:56:48.335, 1592535408335
7, 18396.24, 9256.37, -187500.02, 187500.00, -187500.02, -187500.02, -187500.02, -187500.02, 0.000, 0.000, 0.000, 20:56:48.335, 1592535408335
8, 18397.14, 9070.92, -187500.02, 187500.00, -187500.02, -187500.02, -187500.02, -187500.02, 0.000, 0.000, 0.000, 20:56:48.350, 1592535408350
9, 18419.65, 9713.08, -187500.02, 187500.00, -187500.02, -187500.02, -187500.02, -187500.02, 0.034, -0.034, 0.974, 20:56:48.350, 1592535408350
10, 18421.84, 9968.05, -187500.02, 187500.00, -187500.02, -187500.02, -187500.02, -187500.02, 0.000, 0.000, 0.000, 20:56:48.350, 1592535408350
11, 18394.90, 9215.94, -187500.02, 187500.00, -187500.02, -187500.02, -187500.02, -187500.02, 0.000, 0.000, 0.000, 20:56:48.365, 1592535408365
12, 18395.24, 8894.81, -187500.02, 187500.00, -187500.02, -187500.02, -187500.02, -187500.02, 0.000, 0.000, 0.000, 20:56:48.365, 1592535408365
13, 18415.67, 9517.51, -187500.02, 187500.00, -187500.02, -187500.02, -187500.02, -187500.02, 0.000, 0.000, 0.000, 20:56:48.365, 1592535408365
14, 18421.39, 9961.64, -187500.02, 187500.00, -187500.02, -187500.02, -187500.02, -187500.02, 0.000, 0.000, 0.000, 20:56:48.365, 1592535408365
15, 18407.31, 9295.08, -187500.02, 187500.00, -187500.02, -187500.02, -187500.02, -187500.02, 0.000, 0.000, 0.000, 20:56:48.381, 1592535408381
16, 18385.34, 8817.92, -187500.02, 187500.00, -187500.02, -187500.02, -187500.02, -187500.02, 0.000, 0.000, 0.000, 20:56:48.381, 1592535408381
17, 18399.60, 9346.31, -187500.02, 187500.00, -187500.02, -187500.02, -187500.02, -187500.02, 0.000, 0.000, 0.000, 20:56:48.381, 1592535408381
18, 18408.47, 9912.24, -187500.02, 187500.00, -187500.02, -187500.02, -187500.02, -187500.02, 0.000, 0.000, 0.000, 20:56:48.381, 1592535408381
19, 18393.96, 9391.49, -187500.02, 187500.00, -187500.02, -187500.02, -187500.02, -187500.02, 0.024, -0.034, 0.978, 20:56:48.396, 1592535408396
20, 18387.97, 8745.70, -187500.02, 187500.00, -187500.02, -187500.02, -187500.02, -187500.02, 0.000, 0.000, 0.000, 20:56:48.396, 1592535408396
21, 18397.99, 9127.02, -187500.02, 187500.00, -187500.02, -187500.02, -187500.02, -187500.02, 0.000, 0.000, 0.000, 20:56:48.396, 1592535408396
22, 18412.56, 9817.27, -187500.02, 187500.00, -187500.02, -187500.02, -187500.02, -187500.02, 0.000, 0.000, 0.000, 20:56:48.396, 1592535408396
23, 18401.36, 9510.42, -187500.02, 187500.00, -187500.02, -187500.02, -187500.02, -187500.02, 0.000, 0.000, 0.000, 20:56:48.412, 1592535408412
24, 18389.49, 8814.30, -187500.02, 187500.00, -187500.02, -187500.02, -187500.02, -187500.02, 0.000, 0.000, 0.000, 20:56:48.412, 1592535408412
25, 18399.55, 9050.20, -187500.02, 187500.00, -187500.02, -187500.02, -187500.02, -187500.02, 0.000, 0.000, 0.000, 20:56:48.412, 1592535408412
26, 18409.39, 9805.58, -187500.02, 187500.00, -187500.02, -187500.02, -187500.02, -187500.02, 0.000, 0.000, 0.000, 20:56:48.427, 1592535408427
27, 18409.46, 9736.40, -187500.02, 187500.00, -187500.02, -187500.02, -187500.02, -187500.02, 0.000, 0.000, 0.000, 20:56:48.428, 1592535408428
28, 18391.53, 8942.66, -187500.02, 187500.00, -187500.02, -187500.02, -187500.02, -187500.02, 0.020, -0.032, 0.976, 20:56:48.429, 1592535408429
29, 18388.06, 9010.84, -187500.02, 187500.00, -187500.02, -187500.02, -187500.02, -187500.02, 0.000, 0.000, 0.000, 20:56:48.429, 1592535408429
30, 18408.67, 9823.01, -187500.02, 187500.00, -187500.02, -187500.02, -187500.02, -187500.02, 0.000, 0.000, 0.000, 20:56:48.441, 1592535408441
31, 18412.49, 9966.17, -187500.02, 187500.00, -187500.02, -187500.02, -187500.02, -187500.02, 0.000, 0.000, 0.000, 20:56:48.441, 1592535408441
32, 18401.65, 9193.38, -187500.02, 187500.00, -187500.02, -187500.02, -187500.02, -187500.02, 0.000, 0.000, 0.000, 20:56:48.442, 1592535408442
33, 18395.08, 9047.52, -187500.02, 187500.00, -187500.02, -187500.02, -187500.02, -187500.02, 0.000, 0.000, 0.000, 20:56:48.444, 1592535408444
34, 18404.45, 9734.54, -187500.02, 187500.00, -187500.02, -187500.02, -187500.02, -187500.02, 0.000, 0.000, 0.000, 20:56:48.457, 1592535408457
35, 18405.72, 10057.12, -187500.02, 187500.00, -187500.02, -187500.02, -187500.02, -187500.02, 0.000, 0.000, 0.000, 20:56:48.457, 1592535408457
36, 18383.35, 9340.39, -187500.02, 187500.00, -187500.02, -187500.02, -187500.02, -187500.02, 0.000, 0.000, 0.000, 20:56:48.458, 1592535408458
37, 18381.78, 9000.00, -187500.02, 187500.00, -187500.02, -187500.02, -187500.02, -187500.02, 0.000, 0.000, 0.000, 20:56:48.458, 1592535408458
38, 18400.87, 9575.82, -187500.02, 187500.00, -187500.02, -187500.02, -187500.02, -187500.02, 0.020, -0.032, 0.976, 20:56:48.469, 1592535408469
39, 18408.45, 10078.02, -187500.02, 187500.00, -187500.02, -187500.02, -187500.02, -187500.02, 0.000, 0.000, 0.000, 20:56:48.469, 1592535408469
40, 18391.04, 9504.99, -187500.02, 187500.00, -187500.02, -187500.02, -187500.02, -187500.02, 0.000, 0.000, 0.000, 20:56:48.470, 1592535408470
41, 18378.52, 8950.31, -187500.02, 187500.00, -187500.02, -187500.02, -187500.02, -187500.02, 0.000, 0.000, 0.000, 20:56:48.485, 1592535408485
42, 18394.12, 9440.77, -187500.02, 187500.00, -187500.02, -187500.02, -187500.02, -187500.02, 0.000, 0.000, 0.000, 20:56:48.485, 1592535408485
43, 18403.04, 10036.36, -187500.02, 187500.00, -187500.02, -187500.02, -187500.02, -187500.02, 0.000, 0.000, 0.000, 20:56:48.485, 1592535408485
44, 18392.74, 9538.65, -187500.02, 187500.00, -187500.02, -187500.02, -187500.02, -187500.02, 0.000, 0.000, 0.000, 20:56:48.486, 1592535408486
45, 18374.27, 8886.56, -187500.02, 187500.00, -187500.02, -187500.02, -187500.02, -187500.02, 0.000, 0.000, 0.000, 20:56:48.500, 1592535408500
46, 18387.80, 9184.96, -187500.02, 187500.00, -187500.02, -187500.02, -187500.02, -187500.02, 0.000, 0.000, 0.000, 20:56:48.500, 1592535408500
47, 18404.07, 9874.46, -187500.02, 187500.00, -187500.02, -187500.02, -187500.02, -187500.02, 0.000, 0.000, 0.000, 20:56:48.500, 1592535408500
48, 18381.02, 9595.94, -187500.02, 187500.00, -187500.02, -187500.02, -187500.02, -187500.02, 0.020, -0.034, 0.972, 20:56:48.500, 1592535408500
49, 18371.55, 8847.51, -187500.02, 187500.00, -187500.02, -187500.02, -187500.02, -187500.02, 0.000, 0.000, 0.000, 20:56:48.516, 1592535408516
50, 18388.71, 8976.97, -187500.02, 187500.00, -187500.02, -187500.02, -187500.02, -187500.02, 0.000, 0.000, 0.000, 20:56:48.516, 1592535408516
51, 18405.90, 9665.94, -187500.02, 187500.00, -187500.02, -187500.02, -187500.02, -187500.02, 0.000, 0.000, 0.000, 20:56:48.516, 1592535408516
52, 18407.94, 9578.53, -187500.02, 187500.00, -187500.02, -187500.02, -187500.02, -187500.02, 0.000, 0.000, 0.000, 20:56:48.516, 1592535408516
53, 18378.34, 8752.81, -187500.02, 187500.00, -187500.02, -187500.02, -187500.02, -187500.02, 0.000, 0.000, 0.000, 20:56:48.529, 1592535408529
54, 18383.62, 8710.47, -187500.02, 187500.00, -187500.02, -187500.02, -187500.02, -187500.02, 0.000, 0.000, 0.000, 20:56:48.530, 1592535408530
55, 18404.56, 9421.13, -187500.02, 187500.00, -187500.02, -187500.02, -187500.02, -187500.02, 0.000, 0.000, 0.000, 20:56:48.530, 1592535408530
56, 18398.90, 9558.28, -187500.02, 187500.00, -187500.02, -187500.02, -187500.02, -187500.02, 0.000, 0.000, 0.000, 20:56:48.546, 1592535408546
57, 18377.40, 8787.72, -187500.02, 187500.00, -187500.02, -187500.02, -187500.02, -187500.02, 0.000, 0.000, 0.000, 20:56:48.546, 1592535408546
58, 18377.63, 8589.19, -187500.02, 187500.00, -187500.02, -187500.02, -187500.02, -187500.02, 0.020, -0.028, 0.978, 20:56:48.546, 1592535408546
59, 18399.53, 9258.23, -187500.02, 187500.00, -187500.02, -187500.02, -187500.02, -187500.02, 0.000, 0.000, 0.000, 20:56:48.546, 1592535408546
60, 18410.55, 9609.60, -187500.02, 187500.00, -187500.02, -187500.02, -187500.02, -187500.02, 0.000, 0.000, 0.000, 20:56:48.562, 1592535408562
61, 18388.44, 8904.06, -187500.02, 187500.00, -187500.02, -187500.02, -187500.02, -187500.02, 0.000, 0.000, 0.000, 20:56:48.563, 1592535408563
62, 18388.62, 8533.94, -187500.02, 187500.00, -187500.02, -187500.02, -187500.02, -187500.02, 0.000, 0.000, 0.000, 20:56:48.564, 1592535408564
63, 18418.87, 9084.93, -187500.02, 187500.00, -187500.02, -187500.02, -187500.02, -187500.02, 0.000, 0.000, 0.000, 20:56:48.564, 1592535408564
64, 18416.18, 9538.05, -187500.02, 187500.00, -187500.02, -187500.02, -187500.02, -187500.02, 0.000, 0.000, 0.000, 20:56:48.577, 1592535408577
65, 18378.27, 8902.77, -187500.02, 187500.00, -187500.02, -187500.02, -187500.02, -187500.02, 0.000, 0.000, 0.000, 20:56:48.578, 1592535408578
66, 18373.04, 8356.22, -187500.02, 187500.00, -187500.02, -187500.02, -187500.02, -187500.02, 0.000, 0.000, 0.000, 20:56:48.579, 1592535408579
67, 18395.26, 8808.02, -187500.02, 187500.00, -187500.02, -187500.02, -187500.02, -187500.02, 0.000, 0.000, 0.000, 20:56:48.579, 1592535408579
68, 18410.37, 9446.70, -187500.02, 187500.00, -187500.02, -187500.02, -187500.02, -187500.02, 0.018, -0.026, 0.974, 20:56:48.591, 1592535408591
69, 18390.50, 9006.61, -187500.02, 187500.00, -187500.02, -187500.02, -187500.02, -187500.02, 0.000, 0.000, 0.000, 20:56:48.592, 1592535408592
70, 18385.70, 8353.50, -187500.02, 187500.00, -187500.02, -187500.02, -187500.02, -187500.02, 0.000, 0.000, 0.000, 20:56:48.592, 1592535408592
71, 18407.53, 8679.76, -187500.02, 187500.00, -187500.02, -187500.02, -187500.02, -187500.02, 0.000, 0.000, 0.000, 20:56:48.606, 1592535408606
72, 18410.91, 9401.99, -187500.02, 187500.00, -187500.02, -187500.02, -187500.02, -187500.02, 0.000, 0.000, 0.000, 20:56:48.606, 1592535408606
73, 18383.39, 9168.48, -187500.02, 187500.00, -187500.02, -187500.02, -187500.02, -187500.02, 0.000, 0.000, 0.000, 20:56:48.606, 1592535408606
74, 18359.86, 8431.88, -187500.02, 187500.00, -187500.02, -187500.02, -187500.02, -187500.02, 0.000, 0.000, 0.000, 20:56:48.606, 1592535408606
75, 18376.38, 8581.80, -187500.02, 187500.00, -187500.02, -187500.02, -187500.02, -187500.02, 0.000, 0.000, 0.000, 20:56:48.621, 1592535408621
76, 18404.47, 9330.02, -187500.02, 187500.00, -187500.02, -187500.02, -187500.02, -187500.02, 0.000, 0.000, 0.000, 20:56:48.622, 1592535408622
77, 18393.34, 9300.76, -187500.02, 187500.00, -187500.02, -187500.02, -187500.02, -187500.02, 0.000, 0.000, 0.000, 20:56:48.622, 1592535408622
78, 18375.84, 8505.46, -187500.02, 187500.00, -187500.02, -187500.02, -187500.02, -187500.02, 0.018, -0.028, 0.970, 20:56:48.622, 1592535408622
79, 18383.39, 8458.64, -187500.02, 187500.00, -187500.02, -187500.02, -187500.02, -187500.02, 0.000, 0.000, 0.000, 20:56:48.637, 1592535408637
80, 18415.13, 9197.50, -187500.02, 187500.00, -187500.02, -187500.02, -187500.02, -187500.02, 0.000, 0.000, 0.000, 20:56:48.639, 1592535408639
81, 18416.16, 9380.87, -187500.02, 187500.00, -187500.02, -187500.02, -187500.02, -187500.02, 0.000, 0.000, 0.000, 20:56:48.640, 1592535408640
82, 18381.00, 8605.94, -187500.02, 187500.00, -187500.02, -187500.02, -187500.02, -187500.02, 0.000, 0.000, 0.000, 20:56:48.640, 1592535408640
83, 18384.35, 8385.57, -187500.02, 187500.00, -187500.02, -187500.02, -187500.02, -187500.02, 0.000, 0.000, 0.000, 20:56:48.650, 1592535408650
84, 18407.42, 9048.39, -187500.02, 187500.00, -187500.02, -187500.02, -187500.02, -187500.02, 0.000, 0.000, 0.000, 20:56:48.650, 1592535408650
85, 18406.95, 9411.11, -187500.02, 187500.00, -187500.02, -187500.02, -187500.02, -187500.02, 0.000, 0.000, 0.000, 20:56:48.650, 1592535408650
86, 18377.96, 8695.45, -187500.02, 187500.00, -187500.02, -187500.02, -187500.02, -187500.02, 0.000, 0.000, 0.000, 20:56:48.664, 1592535408664
87, 18365.20, 8282.30, -187500.02, 187500.00, -187500.02, -187500.02, -187500.02, -187500.02, 0.000, 0.000, 0.000, 20:56:48.665, 1592535408665
88, 18387.13, 8852.92, -187500.02, 187500.00, -187500.02, -187500.02, -187500.02, -187500.02, 0.020, -0.030, 0.974, 20:56:48.665, 1592535408665
89, 18398.48, 9402.55, -187500.02, 187500.00, -187500.02, -187500.02, -187500.02, -187500.02, 0.000, 0.000, 0.000, 20:56:48.665, 1592535408665
90, 18384.15, 8852.94, -187500.02, 187500.00, -187500.02, -187500.02, -187500.02, -187500.02, 0.000, 0.000, 0.000, 20:56:48.681, 1592535408681
91, 18366.47, 8290.06, -187500.02, 187500.00, -187500.02, -187500.02, -187500.02, -187500.02, 0.000, 0.000, 0.000, 20:56:48.681, 1592535408681
92, 18377.47, 8726.66, -187500.02, 187500.00, -187500.02, -187500.02, -187500.02, -187500.02, 0.000, 0.000, 0.000, 20:56:48.681, 1592535408681
93, 18390.88, 9392.29, -187500.02, 187500.00, -187500.02, -187500.02, -187500.02, -187500.02, 0.000, 0.000, 0.000, 20:56:48.681, 1592535408681
94, 18377.40, 9008.00, -187500.02, 187500.00, -187500.02, -187500.02, -187500.02, -187500.02, 0.000, 0.000, 0.000, 20:56:48.695, 1592535408695
95, 18364.17, 8339.06, -187500.02, 187500.00, -187500.02, -187500.02, -187500.02, -187500.02, 0.000, 0.000, 0.000, 20:56:48.696, 1592535408696
96, 18382.88, 8644.00, -187500.02, 187500.00, -187500.02, -187500.02, -187500.02, -187500.02, 0.000, 0.000, 0.000, 20:56:48.696, 1592535408696
97, 18397.23, 9393.83, -187500.02, 187500.00, -187500.02, -187500.02, -187500.02, -187500.02, 0.000, 0.000, 0.000, 20:56:48.696, 1592535408696
98, 18390.70, 9218.02, -187500.02, 187500.00, -187500.02, -187500.02, -187500.02, -187500.02, 0.022, -0.030, 0.974, 20:56:48.711, 1592535408711
99, 18366.70, 8461.70, -187500.02, 187500.00, -187500.02, -187500.02, -187500.02, -187500.02, 0.000, 0.000, 0.000, 20:56:48.711, 1592535408711
100, 18375.64, 8586.44, -187500.02, 187500.00, -187500.02, -187500.02, -187500.02, -187500.02, 0.000, 0.000, 0.000, 20:56:48.711, 1592535408711
101, 18403.08, 9357.16, -187500.02, 187500.00, -187500.02, -187500.02, -187500.02, -187500.02, 0.000, 0.000, 0.000, 20:56:48.726, 1592535408726
102, 18396.58, 9389.74, -187500.02, 187500.00, -187500.02, -187500.02, -187500.02, -187500.02, 0.000, 0.000, 0.000, 20:56:48.726, 1592535408726
103, 18377.13, 8606.27, -187500.02, 187500.00, -187500.02, -187500.02, -187500.02, -187500.02, 0.000, 0.000, 0.000, 20:56:48.726, 1592535408726
104, 18377.67, 8535.59, -187500.02, 187500.00, -187500.02, -187500.02, -187500.02, -187500.02, 0.000, 0.000, 0.000, 20:56:48.726, 1592535408726
105, 18397.16, 9273.02, -187500.02, 187500.00, -187500.02, -187500.02, -187500.02, -187500.02, 0.000, 0.000, 0.000, 20:56:48.740, 1592535408740
106, 18397.68, 9517.66, -187500.02, 187500.00, -187500.02, -187500.02, -187500.02, -187500.02, 0.000, 0.000, 0.000, 20:56:48.740, 1592535408740
107, 18382.50, 8773.19, -187500.02, 187500.00, -187500.02, -187500.02, -187500.02, -187500.02, 0.000, 0.000, 0.000, 20:56:48.740, 1592535408740
108, 18393.18, 8532.84, -187500.02, 187500.00, -187500.02, -187500.02, -187500.02, -187500.02, 0.024, -0.028, 0.968, 20:56:48.740, 1592535408740
109, 18406.35, 9178.03, -187500.02, 187500.00, -187500.02, -187500.02, -187500.02, -187500.02, 0.000, 0.000, 0.000, 20:56:48.756, 1592535408756
110, 18404.25, 9601.59, -187500.02, 187500.00, -187500.02, -187500.02, -187500.02, -187500.02, 0.000, 0.000, 0.000, 20:56:48.756, 1592535408756
111, 18387.17, 8948.59, -187500.02, 187500.00, -187500.02, -187500.02, -187500.02, -187500.02, 0.000, 0.000, 0.000, 20:56:48.756, 1592535408756
112, 18365.06, 8514.41, -187500.02, 187500.00, -187500.02, -187500.02, -187500.02, -187500.02, 0.000, 0.000, 0.000, 20:56:48.756, 1592535408756
113, 18383.71, 9074.27, -187500.02, 187500.00, -187500.02, -187500.02, -187500.02, -187500.02, 0.000, 0.000, 0.000, 20:56:48.770, 1592535408770
114, 18382.21, 9646.90, -187500.02, 187500.00, -187500.02, -187500.02, -187500.02, -187500.02, 0.000, 0.000, 0.000, 20:56:48.770, 1592535408770
115, 18359.45, 9119.98, -187500.02, 187500.00, -187500.02, -187500.02, -187500.02, -187500.02, 0.000, 0.000, 0.000, 20:56:48.770, 1592535408770
116, 18359.32, 8554.26, -187500.02, 187500.00, -187500.02, -187500.02, -187500.02, -187500.02, 0.000, 0.000, 0.000, 20:56:48.770, 1592535408770
117, 18385.29, 8993.92, -187500.02, 187500.00, -187500.02, -187500.02, -187500.02, -187500.02, 0.020, -0.028, 0.974, 20:56:48.785, 1592535408785
118, 18415.00, 9697.55, -187500.02, 187500.00, -187500.02, -187500.02, -187500.02, -187500.02, 0.000, 0.000, 0.000, 20:56:48.785, 1592535408785
119, 18393.54, 9336.97, -187500.02, 187500.00, -187500.02, -187500.02, -187500.02, -187500.02, 0.000, 0.000, 0.000, 20:56:48.785, 1592535408785
120, 18377.92, 8626.72, -187500.02, 187500.00, -187500.02, -187500.02, -187500.02, -187500.02, 0.000, 0.000, 0.000, 20:56:48.801, 1592535408801
121, 18373.56, 8865.91, -187500.02, 187500.00, -187500.02, -187500.02, -187500.02, -187500.02, 0.000, 0.000, 0.000, 20:56:48.801, 1592535408801
122, 18396.67, 9601.55, -187500.02, 187500.00, -187500.02, -187500.02, -187500.02, -187500.02, 0.000, 0.000, 0.000, 20:56:48.801, 1592535408801
123, 18431.54, 9465.11, -187500.02, 187500.00, -187500.02, -187500.02, -187500.02, -187500.02, 0.000, 0.000, 0.000, 20:56:48.801, 1592535408801
124, 18445.13, 8705.31, -187500.02, 187500.00, -187500.02, -187500.02, -187500.02, -187500.02, 0.000, 0.000, 0.000, 20:56:48.817, 1592535408817
125, 18417.17, 8738.88, -187500.02, 187500.00, -187500.02, -187500.02, -187500.02, -187500.02, 0.000, 0.000, 0.000, 20:56:48.817, 1592535408817
126, 18365.73, 9412.83, -187500.02, 187500.00, -187500.02, -187500.02, -187500.02, -187500.02, 0.000, 0.000, 0.000, 20:56:48.817, 1592535408817
127, 18327.27, 9432.41, -187500.02, 187500.00, -187500.02, -187500.02, -187500.02, -187500.02, 0.016, -0.030, 0.974, 20:56:48.817, 1592535408817
128, 18308.71, 8643.53, -187500.02, 187500.00, -187500.02, -187500.02, -187500.02, -187500.02, 0.000, 0.000, 0.000, 20:56:48.831, 1592535408831
129, 18327.54, 8562.98, -187500.02, 187500.00, -187500.02, -187500.02, -187500.02, -187500.02, 0.000, 0.000, 0.000, 20:56:48.831, 1592535408831
130, 18358.07, 9301.32, -187500.02, 187500.00, -187500.02, -187500.02, -187500.02, -187500.02, 0.000, 0.000, 0.000, 20:56:48.831, 1592535408831
131, 18364.21, 9577.59, -187500.02, 187500.00, -187500.02, -187500.02, -187500.02, -187500.02, 0.000, 0.000, 0.000, 20:56:48.831, 1592535408831
132, 18343.81, 8820.78, -187500.02, 187500.00, -187500.02, -187500.02, -187500.02, -187500.02, 0.000, 0.000, 0.000, 20:56:48.846, 1592535408846
133, 18344.28, 8545.70, -187500.02, 187500.00, -187500.02, -187500.02, -187500.02, -187500.02, 0.000, 0.000, 0.000, 20:56:48.846, 1592535408846
134, 18370.12, 9216.14, -187500.02, 187500.00, -187500.02, -187500.02, -187500.02, -187500.02, 0.000, 0.000, 0.000, 20:56:48.847, 1592535408847
135, 18393.09, 9695.87, -187500.02, 187500.00, -187500.02, -187500.02, -187500.02, -187500.02, 0.000, 0.000, 0.000, 20:56:48.860, 1592535408860
136, 18375.12, 9071.99, -187500.02, 187500.00, -187500.02, -187500.02, -187500.02, -187500.02, 0.000, 0.000, 0.000, 20:56:48.860, 1592535408860
137, 18366.79, 8636.51, -187500.02, 187500.00, -187500.02, -187500.02, -187500.02, -187500.02, 0.020, -0.030, 0.974, 20:56:48.860, 1592535408860
138, 18386.19, 9185.54, -187500.02, 187500.00, -187500.02, -187500.02, -187500.02, -187500.02, 0.000, 0.000, 0.000, 20:56:48.860, 1592535408860
139, 18397.90, 9803.59, -187500.02, 187500.00, -187500.02, -187500.02, -187500.02, -187500.02, 0.000, 0.000, 0.000, 20:56:48.875, 1592535408875
140, 18377.74, 9330.67, -187500.02, 187500.00, -187500.02, -187500.02, -187500.02, -187500.02, 0.000, 0.000, 0.000, 20:56:48.875, 1592535408875
141, 18366.56, 8750.57, -187500.02, 187500.00, -187500.02, -187500.02, -187500.02, -187500.02, 0.000, 0.000, 0.000, 20:56:48.875, 1592535408875
142, 18378.43, 9136.01, -187500.02, 187500.00, -187500.02, -187500.02, -187500.02, -187500.02, 0.000, 0.000, 0.000, 20:56:48.876, 1592535408876
143, 18391.55, 9837.02, -187500.02, 187500.00, -187500.02, -187500.02, -187500.02, -187500.02, 0.000, 0.000, 0.000, 20:56:48.891, 1592535408891
144, 18378.30, 9525.93, -187500.02, 187500.00, -187500.02, -187500.02, -187500.02, -187500.02, 0.000, 0.000, 0.000, 20:56:48.891, 1592535408891
145, 18354.94, 8795.25, -187500.02, 187500.00, -187500.02, -187500.02, -187500.02, -187500.02, 0.000, 0.000, 0.000, 20:56:48.891, 1592535408891
146, 18371.55, 9020.87, -187500.02, 187500.00, -187500.02, -187500.02, -187500.02, -187500.02, 0.000, 0.000, 0.000, 20:56:48.891, 1592535408891
147, 18423.71, 9790.64, -187500.02, 187500.00, -187500.02, -187500.02, -187500.02, -187500.02, 0.018, -0.030, 0.976, 20:56:48.905, 1592535408905
148, 18409.81, 9678.93, -187500.02, 187500.00, -187500.02, -187500.02, -187500.02, -187500.02, 0.000, 0.000, 0.000, 20:56:48.905, 1592535408905
149, 18390.66, 8926.71, -187500.02, 187500.00, -187500.02, -187500.02, -187500.02, -187500.02, 0.000, 0.000, 0.000, 20:56:48.906, 1592535408906
150, 18392.49, 8981.02, -187500.02, 187500.00, -187500.02, -187500.02, -187500.02, -187500.02, 0.000, 0.000, 0.000, 20:56:48.921, 1592535408921
151, 18363.77, 9708.08, -187500.02, 187500.00, -187500.02, -187500.02, -187500.02, -187500.02, 0.000, 0.000, 0.000, 20:56:48.921, 1592535408921
152, 18367.86, 9816.75, -187500.02, 187500.00, -187500.02, -187500.02, -187500.02, -187500.02, 0.000, 0.000, 0.000, 20:56:48.921, 1592535408921
153, 18361.13, 9055.81, -187500.02, 187500.00, -187500.02, -187500.02, -187500.02, -187500.02, 0.000, 0.000, 0.000, 20:56:48.921, 1592535408921
154, 18369.76, 8963.23, -187500.02, 187500.00, -187500.02, -187500.02, -187500.02, -187500.02, 0.000, 0.000, 0.000, 20:56:48.935, 1592535408935
155, 18384.62, 9703.63, -187500.02, 187500.00, -187500.02, -187500.02, -187500.02, -187500.02, 0.000, 0.000, 0.000, 20:56:48.935, 1592535408935
156, 18367.30, 10018.57, -187500.02, 187500.00, -187500.02, -187500.02, -187500.02, -187500.02, 0.000, 0.000, 0.000, 20:56:48.935, 1592535408935
157, 18351.32, 9280.09, -187500.02, 187500.00, -187500.02, -187500.02, -187500.02, -187500.02, 0.016, -0.034, 0.970, 20:56:48.936, 1592535408936
158, 18368.95, 9005.63, -187500.02, 187500.00, -187500.02, -187500.02, -187500.02, -187500.02, 0.000, 0.000, 0.000, 20:56:48.952, 1592535408952
159, 18386.16, 9679.36, -187500.02, 187500.00, -187500.02, -187500.02, -187500.02, -187500.02, 0.000, 0.000, 0.000, 20:56:48.952, 1592535408952
160, 18384.60, 10194.65, -187500.02, 187500.00, -187500.02, -187500.02, -187500.02, -187500.02, 0.000, 0.000, 0.000, 20:56:48.952, 1592535408952
161, 18365.51, 9614.98, -187500.02, 187500.00, -187500.02, -187500.02, -187500.02, -187500.02, 0.000, 0.000, 0.000, 20:56:48.952, 1592535408952
162, 18363.77, 9164.64, -187500.02, 187500.00, -187500.02, -187500.02, -187500.02, -187500.02, 0.000, 0.000, 0.000, 20:56:48.966, 1592535408966
163, 18379.64, 9661.74, -187500.02, 187500.00, -187500.02, -187500.02, -187500.02, -187500.02, 0.000, 0.000, 0.000, 20:56:48.966, 1592535408966
164, 18386.30, 10276.82, -187500.02, 187500.00, -187500.02, -187500.02, -187500.02, -187500.02, 0.000, 0.000, 0.000, 20:56:48.966, 1592535408966
165, 18379.35, 9834.59, -187500.02, 187500.00, -187500.02, -187500.02, -187500.02, -187500.02, 0.000, 0.000, 0.000, 20:56:48.981, 1592535408981
166, 18369.83, 9201.27, -187500.02, 187500.00, -187500.02, -187500.02, -187500.02, -187500.02, 0.000, 0.000, 0.000, 20:56:48.981, 1592535408981
167, 18374.83, 9577.57, -187500.02, 187500.00, -187500.02, -187500.02, -187500.02, -187500.02, 0.012, -0.034, 0.974, 20:56:48.981, 1592535408981
168, 18371.19, 10282.25, -187500.02, 187500.00, -187500.02, -187500.02, -187500.02, -187500.02, 0.000, 0.000, 0.000, 20:56:48.981, 1592535408981
169, 18345.53, 10038.75, -187500.02, 187500.00, -187500.02, -187500.02, -187500.02, -187500.02, 0.000, 0.000, 0.000, 20:56:48.995, 1592535408995
170, 18317.05, 9322.55, -187500.02, 187500.00, -187500.02, -187500.02, -187500.02, -187500.02, 0.000, 0.000, 0.000, 20:56:48.995, 1592535408995
171, 18351.09, 9520.97, -187500.02, 187500.00, -187500.02, -187500.02, -187500.02, -187500.02, 0.000, 0.000, 0.000, 20:56:48.996, 1592535408996
172, 18357.35, 10253.42, -187500.02, 187500.00, -187500.02, -187500.02, -187500.02, -187500.02, 0.000, 0.000, 0.000, 20:56:48.996, 1592535408996
173, 18347.96, 10173.40, -187500.02, 187500.00, -187500.02, -187500.02, -187500.02, -187500.02, 0.000, 0.000, 0.000, 20:56:49.010, 1592535409010
174, 18325.81, 9361.65, -187500.02, 187500.00, -187500.02, -187500.02, -187500.02, -187500.02, 0.000, 0.000, 0.000, 20:56:49.011, 1592535409011
175, 18346.22, 9371.46, -187500.02, 187500.00, -187500.02, -187500.02, -187500.02, -187500.02, 0.000, 0.000, 0.000, 20:56:49.011, 1592535409011
176, 18369.24, 10030.97, -187500.02, 187500.00, -187500.02, -187500.02, -187500.02, -187500.02, 0.000, 0.000, 0.000, 20:56:49.011, 1592535409011
177, 18358.40, 10040.36, -187500.02, 187500.00, -187500.02, -187500.02, -187500.02, -187500.02, 0.020, -0.032, 0.978, 20:56:49.026, 1592535409026
178, 18336.95, 9267.68, -187500.02, 187500.00, -187500.02, -187500.02, -187500.02, -187500.02, 0.000, 0.000, 0.000, 20:56:49.027, 1592535409027
179, 18346.42, 9105.52, -187500.02, 187500.00, -187500.02, -187500.02, -187500.02, -187500.02, 0.000, 0.000, 0.000, 20:56:49.027, 1592535409027
180, 18376.06, 9768.41, -187500.02, 187500.00, -187500.02, -187500.02, -187500.02, -187500.02, 0.000, 0.000, 0.000, 20:56:49.040, 1592535409040
181, 18385.96, 10078.42, -187500.02, 187500.00, -187500.02, -187500.02, -187500.02, -187500.02, 0.000, 0.000, 0.000, 20:56:49.040, 1592535409040
182, 18370.47, 9351.21, -187500.02, 187500.00, -187500.02, -187500.02, -187500.02, -187500.02, 0.000, 0.000, 0.000, 20:56:49.040, 1592535409040
183, 18374.85, 9002.68, -187500.02, 187500.00, -187500.02, -187500.02, -187500.02, -187500.02, 0.000, 0.000, 0.000, 20:56:49.040, 1592535409040
184, 18414.17, 9571.08, -187500.02, 187500.00, -187500.02, -187500.02, -187500.02, -187500.02, 0.000, 0.000, 0.000, 20:56:49.056, 1592535409056
185, 18432.70, 10038.75, -187500.02, 187500.00, -187500.02, -187500.02, -187500.02, -187500.02, 0.000, 0.000, 0.000, 20:56:49.056, 1592535409056
186, 18430.53, 9489.43, -187500.02, 187500.00, -187500.02, -187500.02, -187500.02, -187500.02, 0.000, 0.000, 0.000, 20:56:49.056, 1592535409056
187, 18438.80, 9007.95, -187500.02, 187500.00, -187500.02, -187500.02, -187500.02, -187500.02, 0.016, -0.032, 0.976, 20:56:49.056, 1592535409056
188, 18448.35, 9415.74, -187500.02, 187500.00, -187500.02, -187500.02, -187500.02, -187500.02, 0.000, 0.000, 0.000, 20:56:49.070, 1592535409070
189, 18449.13, 9995.50, -187500.02, 187500.00, -187500.02, -187500.02, -187500.02, -187500.02, 0.000, 0.000, 0.000, 20:56:49.070, 1592535409070
190, 18427.20, 9597.01, -187500.02, 187500.00, -187500.02, -187500.02, -187500.02, -187500.02, 0.000, 0.000, 0.000, 20:56:49.071, 1592535409071
191, 18420.88, 9000.91, -187500.02, 187500.00, -187500.02, -187500.02, -187500.02, -187500.02, 0.000, 0.000, 0.000, 20:56:49.071, 1592535409071
192, 18451.83, 9279.75, -187500.02, 187500.00, -187500.02, -187500.02, -187500.02, -187500.02, 0.000, 0.000, 0.000, 20:56:49.085, 1592535409085
193, 18452.73, 9894.29, -187500.02, 187500.00, -187500.02, -187500.02, -187500.02, -187500.02, 0.000, 0.000, 0.000, 20:56:49.085, 1592535409085
194, 18439.36, 9670.86, -187500.02, 187500.00, -187500.02, -187500.02, -187500.02, -187500.02, 0.000, 0.000, 0.000, 20:56:49.085, 1592535409085
195, 18410.60, 8996.60, -187500.02, 187500.00, -187500.02, -187500.02, -187500.02, -187500.02, 0.000, 0.000, 0.000, 20:56:49.100, 1592535409100
196, 18422.04, 9126.19, -187500.02, 187500.00, -187500.02, -187500.02, -187500.02, -187500.02, 0.000, 0.000, 0.000, 20:56:49.100, 1592535409100
197, 18456.33, 9793.04, -187500.02, 187500.00, -187500.02, -187500.02, -187500.02, -187500.02, 0.028, -0.036, 0.972, 20:56:49.100, 1592535409100
198, 18474.01, 9770.89, -187500.02, 187500.00, -187500.02, -187500.02, -187500.02, -187500.02, 0.000, 0.000, 0.000, 20:56:49.100, 1592535409100
199, 18448.03, 9066.85, -187500.02, 187500.00, -187500.02, -187500.02, -187500.02, -187500.02, 0.000, 0.000, 0.000, 20:56:49.117, 1592535409117
200, 18441.26, 9008.56, -187500.02, 187500.00, -187500.02, -187500.02, -187500.02, -187500.02, 0.000, 0.000, 0.000, 20:56:49.118, 1592535409118
201, 18460.51, 9618.47, -187500.02, 187500.00, -187500.02, -187500.02, -187500.02, -187500.02, 0.000, 0.000, 0.000, 20:56:49.118, 1592535409118
202, 18453.22, 9765.39, -187500.02, 187500.00, -187500.02, -187500.02, -187500.02, -187500.02, 0.000, 0.000, 0.000, 20:56:49.118, 1592535409118
203, 18436.63, 9112.56, -187500.02, 187500.00, -187500.02, -187500.02, -187500.02, -187500.02, 0.000, 0.000, 0.000, 20:56:49.132, 1592535409132
204, 18442.51, 8948.12, -187500.02, 187500.00, -187500.02, -187500.02, -187500.02, -187500.02, 0.000, 0.000, 0.000, 20:56:49.133, 1592535409133
205, 18462.18, 9518.69, -187500.02, 187500.00, -187500.02, -187500.02, -187500.02, -187500.02, 0.000, 0.000, 0.000, 20:56:49.133, 1592535409133
206, 18468.13, 9849.77, -187500.02, 187500.00, -187500.02, -187500.02, -187500.02, -187500.02, 0.022, -0.034, 0.968, 20:56:49.133, 1592535409133
207, 18452.48, 9279.80, -187500.02, 187500.00, -187500.02, -187500.02, -187500.02, -187500.02, 0.000, 0.000, 0.000, 20:56:49.145, 1592535409145
208, 18444.26, 8965.49, -187500.02, 187500.00, -187500.02, -187500.02, -187500.02, -187500.02, 0.000, 0.000, 0.000, 20:56:49.146, 1592535409146
209, 18450.02, 9416.77, -187500.02, 187500.00, -187500.02, -187500.02, -187500.02, -187500.02, 0.000, 0.000, 0.000, 20:56:49.146, 1592535409146
210, 18473.25, 9867.58, -187500.02, 187500.00, -187500.02, -187500.02, -187500.02, -187500.02, 0.000, 0.000, 0.000, 20:56:49.160, 1592535409160
211, 18447.47, 9392.74, -187500.02, 187500.00, -187500.02, -187500.02, -187500.02, -187500.02, 0.000, 0.000, 0.000, 20:56:49.160, 1592535409160
212, 18436.08, 8955.00, -187500.02, 187500.00, -187500.02, -187500.02, -187500.02, -187500.02, 0.000, 0.000, 0.000, 20:56:49.161, 1592535409161
213, 18474.88, 9336.75, -187500.02, 187500.00, -187500.02, -187500.02, -187500.02, -187500.02, 0.000, 0.000, 0.000, 20:56:49.161, 1592535409161
214, 18481.96, 9875.65, -187500.02, 187500.00, -187500.02, -187500.02, -187500.02, -187500.02, 0.000, 0.000, 0.000, 20:56:49.175, 1592535409175
215, 18430.82, 9516.61, -187500.02, 187500.00, -187500.02, -187500.02, -187500.02, -187500.02, 0.000, 0.000, 0.000, 20:56:49.175, 1592535409175
216, 18421.77, 8984.71, -187500.02, 187500.00, -187500.02, -187500.02, -187500.02, -187500.02, 0.020, -0.034, 0.968, 20:56:49.175, 1592535409175
217, 18431.45, 9214.28, -187500.02, 187500.00, -187500.02, -187500.02, -187500.02, -187500.02, 0.000, 0.000, 0.000, 20:56:49.176, 1592535409176
218, 18459.59, 9812.37, -187500.02, 187500.00, -187500.02, -187500.02, -187500.02, -187500.02, 0.000, 0.000, 0.000, 20:56:49.191, 1592535409191
219, 18469.94, 9662.06, -187500.02, 187500.00, -187500.02, -187500.02, -187500.02, -187500.02, 0.000, 0.000, 0.000, 20:56:49.191, 1592535409191
220, 18454.40, 9058.63, -187500.02, 187500.00, -187500.02, -187500.02, -187500.02, -187500.02, 0.000, 0.000, 0.000, 20:56:49.191, 1592535409191
221, 18440.93, 9124.90, -187500.02, 187500.00, -187500.02, -187500.02, -187500.02, -187500.02, 0.000, 0.000, 0.000, 20:56:49.191, 1592535409191
222, 18447.81, 9689.70, -187500.02, 187500.00, -187500.02, -187500.02, -187500.02, -187500.02, 0.000, 0.000, 0.000, 20:56:49.206, 1592535409206
223, 18454.92, 9694.76, -187500.02, 187500.00, -187500.02, -187500.02, -187500.02, -187500.02, 0.000, 0.000, 0.000, 20:56:49.206, 1592535409206
224, 18430.09, 9045.77, -187500.02, 187500.00, -187500.02, -187500.02, -187500.02, -187500.02, 0.000, 0.000, 0.000, 20:56:49.206, 1592535409206
225, 18424.74, 8962.71, -187500.02, 187500.00, -187500.02, -187500.02, -187500.02, -187500.02, 0.000, 0.000, 0.000, 20:56:49.220, 1592535409220
226, 18440.72, 9512.08, -187500.02, 187500.00, -187500.02, -187500.02, -187500.02, -187500.02, 0.018, -0.036, 0.974, 20:56:49.221, 1592535409221
227, 18438.47, 9679.13, -187500.02, 187500.00, -187500.02, -187500.02, -187500.02, -187500.02, 0.000, 0.000, 0.000, 20:56:49.221, 1592535409221
228, 18423.63, 9093.00, -187500.02, 187500.00, -187500.02, -187500.02, -187500.02, -187500.02, 0.000, 0.000, 0.000, 20:56:49.221, 1592535409221
229, 18431.07, 8918.52, -187500.02, 187500.00, -187500.02, -187500.02, -187500.02, -187500.02, 0.000, 0.000, 0.000, 20:56:49.235, 1592535409235
230, 18475.08, 9443.72, -187500.02, 187500.00, -187500.02, -187500.02, -187500.02, -187500.02, 0.000, 0.000, 0.000, 20:56:49.236, 1592535409236
231, 18502.08, 9777.50, -187500.02, 187500.00, -187500.02, -187500.02, -187500.02, -187500.02, 0.000, 0.000, 0.000, 20:56:49.236, 1592535409236
232, 18459.66, 9223.69, -187500.02, 187500.00, -187500.02, -187500.02, -187500.02, -187500.02, 0.000, 0.000, 0.000, 20:56:49.236, 1592535409236
233, 18409.57, 8865.91, -187500.02, 187500.00, -187500.02, -187500.02, -187500.02, -187500.02, 0.000, 0.000, 0.000, 20:56:49.251, 1592535409251
234, 18447.36, 9299.20, -187500.02, 187500.00, -187500.02, -187500.02, -187500.02, -187500.02, 0.000, 0.000, 0.000, 20:56:49.251, 1592535409251
235, 18467.86, 9739.77, -187500.02, 187500.00, -187500.02, -187500.02, -187500.02, -187500.02, 0.000, 0.000, 0.000, 20:56:49.251, 1592535409251
236, 18436.25, 9320.41, -187500.02, 187500.00, -187500.02, -187500.02, -187500.02, -187500.02, 0.016, -0.032, 0.980, 20:56:49.251, 1592535409251
237, 18422.60, 8892.10, -187500.02, 187500.00, -187500.02, -187500.02, -187500.02, -187500.02, 0.000, 0.000, 0.000, 20:56:49.266, 1592535409266
238, 18424.86, 9183.57, -187500.02, 187500.00, -187500.02, -187500.02, -187500.02, -187500.02, 0.000, 0.000, 0.000, 20:56:49.267, 1592535409267
239, 18441.31, 9697.66, -187500.02, 187500.00, -187500.02, -187500.02, -187500.02, -187500.02, 0.000, 0.000, 0.000, 20:56:49.269, 1592535409269
240, 18451.50, 9443.12, -187500.02, 187500.00, -187500.02, -187500.02, -187500.02, -187500.02, 0.000, 0.000, 0.000, 20:56:49.269, 1592535409269
241, 18445.91, 8942.49, -187500.02, 187500.00, -187500.02, -187500.02, -187500.02, -187500.02, 0.000, 0.000, 0.000, 20:56:49.282, 1592535409282
242, 18459.77, 9134.82, -187500.02, 187500.00, -187500.02, -187500.02, -187500.02, -187500.02, 0.000, 0.000, 0.000, 20:56:49.283, 1592535409283
243, 18465.42, 9694.49, -187500.02, 187500.00, -187500.02, -187500.02, -187500.02, -187500.02, 0.000, 0.000, 0.000, 20:56:49.284, 1592535409284
244, 18452.13, 9571.75, -187500.02, 187500.00, -187500.02, -187500.02, -187500.02, -187500.02, 0.000, 0.000, 0.000, 20:56:49.295, 1592535409295
245, 18439.05, 9000.89, -187500.02, 187500.00, -187500.02, -187500.02, -187500.02, -187500.02, 0.000, 0.000, 0.000, 20:56:49.295, 1592535409295
246, 18442.89, 9057.80, -187500.02, 187500.00, -187500.02, -187500.02, -187500.02, -187500.02, 0.016, -0.034, 0.976, 20:56:49.296, 1592535409296
247, 18461.29, 9611.27, -187500.02, 187500.00, -187500.02, -187500.02, -187500.02, -187500.02, 0.000, 0.000, 0.000, 20:56:49.296, 1592535409296
248, 18461.96, 9659.66, -187500.02, 187500.00, -187500.02, -187500.02, -187500.02, -187500.02, 0.000, 0.000, 0.000, 20:56:49.311, 1592535409311
249, 18450.27, 9083.46, -187500.02, 187500.00, -187500.02, -187500.02, -187500.02, -187500.02, 0.000, 0.000, 0.000, 20:56:49.311, 1592535409311
250, 18439.92, 9022.06, -187500.02, 187500.00, -187500.02, -187500.02, -187500.02, -187500.02, 0.000, 0.000, 0.000, 20:56:49.312, 1592535409312
251, 18443.94, 9558.46, -187500.02, 187500.00, -187500.02, -187500.02, -187500.02, -187500.02, 0.000, 0.000, 0.000, 20:56:49.312, 1592535409312
252, 18457.36, 9794.29, -187500.02, 187500.00, -187500.02, -187500.02, -187500.02, -187500.02, 0.000, 0.000, 0.000, 20:56:49.326, 1592535409326
253, 18455.52, 9267.37, -187500.02, 187500.00, -187500.02, -187500.02, -187500.02, -187500.02, 0.000, 0.000, 0.000, 20:56:49.326, 1592535409326
254, 18450.34, 9082.54, -187500.02, 187500.00, -187500.02, -187500.02, -187500.02, -187500.02, 0.000, 0.000, 0.000, 20:56:49.326, 1592535409326
255, 18442.33, 9546.94, -187500.02, 187500.00, -187500.02, -187500.02, -187500.02, -187500.02, 0.000, 0.000, 0.000, 20:56:49.326, 1592535409326
0, 18448.99, 9875.27, -187500.02, 187500.00, -187500.02, -187500.02, -187500.02, -187500.02, 0.012, -0.034, 0.980, 20:56:49.340, 1592535409340
1, 18453.02, 9424.59, -187500.02, 187500.00, -187500.02, -187500.02, -187500.02, -187500.02, 0.000, 0.000, 0.000, 20:56:49.340, 1592535409340
2, 18441.22, 9127.65, -187500.02, 187500.00, -187500.02, -187500.02, -187500.02, -187500.02, 0.000, 0.000, 0.000, 20:56:49.340, 1592535409340
3, 18440.84, 9487.98, -187500.02, 187500.00, -187500.02, -187500.02, -187500.02, -187500.02, 0.000, 0.000, 0.000, 20:56:49.356, 1592535409356
4, 18454.14, 9905.69, -187500.02, 187500.00, -187500.02, -187500.02, -187500.02, -187500.02, 0.000, 0.000, 0.000, 20:56:49.356, 1592535409356
5, 18450.67, 9531.86, -187500.02, 187500.00, -187500.02, -187500.02, -187500.02, -187500.02, 0.000, 0.000, 0.000, 20:56:49.356, 1592535409356
6, 18452.91, 9134.38, -187500.02, 187500.00, -187500.02, -187500.02, -187500.02, -187500.02, 0.000, 0.000, 0.000, 20:56:49.357, 1592535409357
7, 18467.75, 9413.57, -187500.02, 187500.00, -187500.02, -187500.02, -187500.02, -187500.02, 0.000, 0.000, 0.000, 20:56:49.370, 1592535409370
8, 18465.85, 9897.93, -187500.02, 187500.00, -187500.02, -187500.02, -187500.02, -187500.02, 0.000, 0.000, 0.000, 20:56:49.370, 1592535409370
9, 18451.32, 9674.53, -187500.02, 187500.00, -187500.02, -187500.02, -187500.02, -187500.02, 0.000, 0.000, 0.000, 20:56:49.371, 1592535409371
10, 18440.17, 9193.45, -187500.02, 187500.00, -187500.02, -187500.02, -187500.02, -187500.02, 0.014, -0.032, 0.976, 20:56:49.371, 1592535409371
11, 18446.49, 9303.47, -187500.02, 187500.00, -187500.02, -187500.02, -187500.02, -187500.02, 0.000, 0.000, 0.000, 20:56:49.386, 1592535409386
12, 18461.40, 9833.07, -187500.02, 187500.00, -187500.02, -187500.02, -187500.02, -187500.02, 0.000, 0.000, 0.000, 20:56:49.386, 1592535409386
13, 18477.27, 9775.83, -187500.02, 187500.00, -187500.02, -187500.02, -187500.02, -187500.02, 0.000, 0.000, 0.000, 20:56:49.387, 1592535409387
14, 18472.24, 9289.61, -187500.02, 187500.00, -187500.02, -187500.02, -187500.02, -187500.02, 0.000, 0.000, 0.000, 20:56:49.387, 1592535409387
15, 18452.10, 9343.32, -187500.02, 187500.00, -187500.02, -187500.02, -187500.02, -187500.02, 0.000, 0.000, 0.000, 20:56:49.402, 1592535409402
16, 18430.42, 9817.22, -187500.02, 187500.00, -187500.02, -187500.02, -187500.02, -187500.02, 0.000, 0.000, 0.000, 20:56:49.403, 1592535409403
17, 18395.73, 9869.93, -187500.02, 187500.00, -187500.02, -187500.02, -187500.02, -187500.02, 0.000, 0.000, 0.000, 20:56:49.403, 1592535409403
18, 18377.80, 9394.53, -187500.02, 187500.00, -187500.02, -187500.02, -187500.02, -187500.02, 0.000, 0.000, 0.000, 20:56:49.418, 1592535409418
19, 18376.02, 9256.35, -187500.02, 187500.00, -187500.02, -187500.02, -187500.02, -187500.02, 0.000, 0.000, 0.000, 20:56:49.419, 1592535409419
20, 18366.34, 9594.87, -187500.02, 187500.00, -187500.02, -187500.02, -187500.02, -187500.02, 0.018, -0.032, 0.966, 20:56:49.419, 1592535409419
21, 18343.63, 9764.96, -187500.02, 187500.00, -187500.02, -187500.02, -187500.02, -187500.02, 0.000, 0.000, 0.000, 20:56:49.419, 1592535409419
22, 18302.86, 9330.06, -187500.02, 187500.00, -187500.02, -187500.02, -187500.02, -187500.02, 0.000, 0.000, 0.000, 20:56:49.432, 1592535409432
23, 18288.49, 9125.57, -187500.02, 187500.00, -187500.02, -187500.02, -187500.02, -187500.02, 0.000, 0.000, 0.000, 20:56:49.433, 1592535409433
24, 18289.72, 9450.18, -187500.02, 187500.00, -187500.02, -187500.02, -187500.02, -187500.02, 0.000, 0.000, 0.000, 20:56:49.433, 1592535409433
25, 18302.72, 9680.79, -187500.02, 187500.00, -187500.02, -187500.02, -187500.02, -187500.02, 0.000, 0.000, 0.000, 20:56:49.433, 1592535409433
26, 18307.31, 9319.25, -187500.02, 187500.00, -187500.02, -187500.02, -187500.02, -187500.02, 0.000, 0.000, 0.000, 20:56:49.448, 1592535409448
27, 18298.28, 9087.48, -187500.02, 187500.00, -187500.02, -187500.02, -187500.02, -187500.02, 0.000, 0.000, 0.000, 20:56:49.449, 1592535409449
28, 18298.77, 9339.47, -187500.02, 187500.00, -187500.02, -187500.02, -187500.02, -187500.02, 0.000, 0.000, 0.000, 20:56:49.450, 1592535409450
29, 18305.36, 9652.82, -187500.02, 187500.00, -187500.02, -187500.02, -187500.02, -187500.02, 0.000, 0.000, 0.000, 20:56:49.450, 1592535409450
30, 18302.68, 9375.73, -187500.02, 187500.00, -187500.02, -187500.02, -187500.02, -187500.02, 0.018, -0.034, 0.974, 20:56:49.460, 1592535409460
31, 18300.76, 9103.91, -187500.02, 187500.00, -187500.02, -187500.02, -187500.02, -187500.02, 0.000, 0.000, 0.000, 20:56:49.460, 1592535409460
32, 18306.95, 9293.21, -187500.02, 187500.00, -187500.02, -187500.02, -187500.02, -187500.02, 0.000, 0.000, 0.000, 20:56:49.460, 1592535409460
33, 18324.21, 9622.31, -187500.02, 187500.00, -187500.02, -187500.02, -187500.02, -187500.02, 0.000, 0.000, 0.000, 20:56:49.476, 1592535409476
34, 18323.45, 9506.40, -187500.02, 187500.00, -187500.02, -187500.02, -187500.02, -187500.02, 0.000, 0.000, 0.000, 20:56:49.476, 1592535409476
35, 18318.84, 9232.32, -187500.02, 187500.00, -187500.02, -187500.02, -187500.02, -187500.02, 0.000, 0.000, 0.000, 20:56:49.476, 1592535409476
36, 18316.00, 9362.61, -187500.02, 187500.00, -187500.02, -187500.02, -187500.02, -187500.02, 0.000, 0.000, 0.000, 20:56:49.477, 1592535409477
37, 18333.35, 9738.63, -187500.02, 187500.00, -187500.02, -187500.02, -187500.02, -187500.02, 0.000, 0.000, 0.000, 20:56:49.491, 1592535409491
38, 18341.42, 9741.58, -187500.02, 187500.00, -187500.02, -187500.02, -187500.02, -187500.02, 0.000, 0.000, 0.000, 20:56:49.491, 1592535409491
39, 18332.07, 9359.43, -187500.02, 187500.00, -187500.02, -187500.02, -187500.02, -187500.02, 0.018, -0.036, 0.976, 20:56:49.491, 1592535409491
40, 18338.09, 9348.30, -187500.02, 187500.00, -187500.02, -187500.02, -187500.02, -187500.02, 0.000, 0.000, 0.000, 20:56:49.491, 1592535409491
41, 18344.19, 9681.97, -187500.02, 187500.00, -187500.02, -187500.02, -187500.02, -187500.02, 0.000, 0.000, 0.000, 20:56:49.506, 1592535409506
42, 18357.08, 9768.58, -187500.02, 187500.00, -187500.02, -187500.02, -187500.02, -187500.02, 0.000, 0.000, 0.000, 20:56:49.506, 1592535409506
43, 18351.88, 9379.10, -187500.02, 187500.00, -187500.02, -187500.02, -187500.02, -187500.02, 0.000, 0.000, 0.000, 20:56:49.506, 1592535409506
44, 18345.84, 9303.51, -187500.02, 187500.00, -187500.02, -187500.02, -187500.02, -187500.02, 0.000, 0.000, 0.000, 20:56:49.507, 1592535409507
45, 18350.49, 9622.96, -187500.02, 187500.00, -187500.02, -187500.02, -187500.02, -187500.02, 0.000, 0.000, 0.000, 20:56:49.521, 1592535409521
46, 18368.10, 9802.76, -187500.02, 187500.00, -187500.02, -187500.02, -187500.02, -187500.02, 0.000, 0.000, 0.000, 20:56:49.522, 1592535409522
47, 18357.98, 9390.10, -187500.02, 187500.00, -187500.02, -187500.02, -187500.02, -187500.02, 0.000, 0.000, 0.000, 20:56:49.523, 1592535409523
48, 18349.80, 9156.37, -187500.02, 187500.00, -187500.02, -187500.02, -187500.02, -187500.02, 0.000, 0.000, 0.000, 20:56:49.536, 1592535409536
49, 18345.37, 9344.59, -187500.02, 187500.00, -187500.02, -187500.02, -187500.02, -187500.02, 0.020, -0.034, 0.974, 20:56:49.536, 1592535409536
50, 18357.02, 9587.74, -187500.02, 187500.00, -187500.02, -187500.02, -187500.02, -187500.02, 0.000, 0.000, 0.000, 20:56:49.536, 1592535409536
51, 18353.33, 9349.47, -187500.02, 187500.00, -187500.02, -187500.02, -187500.02, -187500.02, 0.000, 0.000, 0.000, 20:56:49.536, 1592535409536
52, 18346.94, 9188.33, -187500.02, 187500.00, -187500.02, -187500.02, -187500.02, -187500.02, 0.000, 0.000, 0.000, 20:56:49.552, 1592535409552
53, 18358.63, 9379.82, -187500.02, 187500.00, -187500.02, -187500.02, -187500.02, -187500.02, 0.000, 0.000, 0.000, 20:56:49.553, 1592535409553
54, 18361.51, 9691.60, -187500.02, 187500.00, -187500.02, -187500.02, -187500.02, -187500.02, 0.000, 0.000, 0.000, 20:56:49.553, 1592535409553
55, 18364.37, 9498.91, -187500.02, 187500.00, -187500.02, -187500.02, -187500.02, -187500.02, 0.000, 0.000, 0.000, 20:56:49.554, 1592535409554
56, 18345.86, 9194.52, -187500.02, 187500.00, -187500.02, -187500.02, -187500.02, -187500.02, 0.000, 0.000, 0.000, 20:56:49.567, 1592535409567
57, 18343.18, 9289.56, -187500.02, 187500.00, -187500.02, -187500.02, -187500.02, -187500.02, 0.000, 0.000, 0.000, 20:56:49.567, 1592535409567
58, 18360.91, 9643.79, -187500.02, 187500.00, -187500.02, -187500.02, -187500.02, -187500.02, 0.000, 0.000, 0.000, 20:56:49.567, 1592535409567
59, 18364.60, 9584.52, -187500.02, 187500.00, -187500.02, -187500.02, -187500.02, -187500.02, 0.022, -0.032, 0.974, 20:56:49.567, 1592535409567
60, 18345.26, 9217.01, -187500.02, 187500.00, -187500.02, -187500.02, -187500.02, -187500.02, 0.000, 0.000, 0.000, 20:56:49.582, 1592535409582
61, 18354.18, 9203.75, -187500.02, 187500.00, -187500.02, -187500.02, -187500.02, -187500.02, 0.000, 0.000, 0.000, 20:56:49.582, 1592535409582
62, 18373.92, 9546.68, -187500.02, 187500.00, -187500.02, -187500.02, -187500.02, -187500.02, 0.000, 0.000, 0.000, 20:56:49.582, 1592535409582
63, 18374.50, 9581.43, -187500.02, 187500.00, -187500.02, -187500.02, -187500.02, -187500.02, 0.000, 0.000, 0.000, 20:56:49.596, 1592535409596
64, 18362.16, 9190.32, -187500.02, 187500.00, -187500.02, -187500.02, -187500.02, -187500.02, 0.000, 0.000, 0.000, 20:56:49.597, 1592535409597
65, 18356.73, 9147.00, -187500.02, 187500.00, -187500.02, -187500.02, -187500.02, -187500.02, 0.000, 0.000, 0.000, 20:56:49.597, 1592535409597
66, 18369.76, 9535.92, -187500.02, 187500.00, -187500.02, -187500.02, -187500.02, -187500.02, 0.000, 0.000, 0.000, 20:56:49.598, 1592535409598
67, 18369.94, 9631.19, -187500.02, 187500.00, -187500.02, -187500.02, -187500.02, -187500.02, 0.000, 0.000, 0.000, 20:56:49.611, 1592535409611
68, 18366.45, 9263.08, -187500.02, 187500.00, -187500.02, -187500.02, -187500.02, -187500.02, 0.000, 0.000, 0.000, 20:56:49.612, 1592535409612
69, 18368.78, 9212.92, -187500.02, 187500.00, -187500.02, -187500.02, -187500.02, -187500.02, 0.018, -0.036, 0.974, 20:56:49.612, 1592535409612
70, 18371.26, 9536.97, -187500.02, 187500.00, -187500.02, -187500.02, -187500.02, -187500.02, 0.000, 0.000, 0.000, 20:56:49.612, 1592535409612
71, 18372.08, 9697.71, -187500.02, 187500.00, -187500.02, -187500.02, -187500.02, -187500.02, 0.000, 0.000, 0.000, 20:56:49.626, 1592535409626
72, 18362.67, 9293.27, -187500.02, 187500.00, -187500.02, -187500.02, -187500.02, -187500.02, 0.000, 0.000, 0.000, 20:56:49.626, 1592535409626
73, 18361.58, 9097.99, -187500.02, 187500.00, -187500.02, -187500.02, -187500.02, -187500.02, 0.000, 0.000, 0.000, 20:56:49.626, 1592535409626
74, 18365.51, 9372.04, -187500.02, 187500.00, -187500.02, -187500.02, -187500.02, -187500.02, 0.000, 0.000, 0.000, 20:56:49.627, 1592535409627
75, 18372.11, 9652.44, -187500.02, 187500.00, -187500.02, -187500.02, -187500.02, -187500.02, 0.000, 0.000, 0.000, 20:56:49.641, 1592535409641
76, 18363.83, 9354.67, -187500.02, 187500.00, -187500.02, -187500.02, -187500.02, -187500.02, 0.000, 0.000, 0.000, 20:56:49.641, 1592535409641
77, 18349.80, 9091.86, -187500.02, 187500.00, -187500.02, -187500.02, -187500.02, -187500.02, 0.000, 0.000, 0.000, 20:56:49.641, 1592535409641
78, 18349.98, 9304.32, -187500.02, 187500.00, -187500.02, -187500.02, -187500.02, -187500.02, 0.000, 0.000, 0.000, 20:56:49.656, 1592535409656
79, 18352.14, 9648.98, -187500.02, 187500.00, -187500.02, -187500.02, -187500.02, -187500.02, 0.024, -0.034, 0.970, 20:56:49.656, 1592535409656
80, 18347.23, 9433.17, -187500.02, 187500.00, -187500.02, -187500.02, -187500.02, -187500.02, 0.000, 0.000, 0.000, 20:56:49.656, 1592535409656
81, 18345.62, 9095.10, -187500.02, 187500.00, -187500.02, -187500.02, -187500.02, -187500.02, 0.000, 0.000, 0.000, 20:56:49.656, 1592535409656
82, 18348.97, 9240.90, -187500.02, 187500.00, -187500.02, -187500.02, -187500.02, -187500.02, 0.000, 0.000, 0.000, 20:56:49.672, 1592535409672
83, 18352.10, 9615.54, -187500.02, 187500.00, -187500.02, -187500.02, -187500.02, -187500.02, 0.000, 0.000, 0.000, 20:56:49.672, 1592535409672
84, 18342.02, 9502.08, -187500.02, 187500.00, -187500.02, -187500.02, -187500.02, -187500.02, 0.000, 0.000, 0.000, 20:56:49.672, 1592535409672
85, 18338.96, 9107.35, -187500.02, 187500.00, -187500.02, -187500.02, -187500.02, -187500.02, 0.000, 0.000, 0.000, 20:56:49.673, 1592535409673
86, 18337.44, 9156.33, -187500.02, 187500.00, -187500.02, -187500.02, -187500.02, -187500.02, 0.000, 0.000, 0.000, 20:56:49.686, 1592535409686
87, 18351.32, 9540.62, -187500.02, 187500.00, -187500.02, -187500.02, -187500.02, -187500.02, 0.000, 0.000, 0.000, 20:56:49.687, 1592535409687
88, 18350.36, 9545.07, -187500.02, 187500.00, -187500.02, -187500.02, -187500.02, -187500.02, 0.000, 0.000, 0.000, 20:56:49.687, 1592535409687
89, 18343.83, 9136.52, -187500.02, 187500.00, -187500.02, -187500.02, -187500.02, -187500.02, 0.022, -0.036, 0.970, 20:56:49.687, 1592535409687
90, 18351.16, 9116.32, -187500.02, 187500.00, -187500.02, -187500.02, -187500.02, -187500.02, 0.000, 0.000, 0.000, 20:56:49.701, 1592535409701
91, 18360.37, 9477.72, -187500.02, 187500.00, -187500.02, -187500.02, -187500.02, -187500.02, 0.000, 0.000, 0.000, 20:56:49.702, 1592535409702
92, 18354.80, 9585.59, -187500.02, 187500.00, -187500.02, -187500.02, -187500.02, -187500.02, 0.000, 0.000, 0.000, 20:56:49.703, 1592535409703
93, 18342.38, 9167.43, -187500.02, 187500.00, -187500.02, -187500.02, -187500.02, -187500.02, 0.000, 0.000, 0.000, 20:56:49.717, 1592535409717
94, 18331.63, 9044.10, -187500.02, 187500.00, -187500.02, -187500.02, -187500.02, -187500.02, 0.000, 0.000, 0.000, 20:56:49.718, 1592535409718
95, 18336.68, 9363.06, -187500.02, 187500.00, -187500.02, -187500.02, -187500.02, -187500.02, 0.000, 0.000, 0.000, 20:56:49.719, 1592535409719
96, 18326.84, 9572.00, -187500.02, 187500.00, -187500.02, -187500.02, -187500.02, -187500.02, 0.000, 0.000, 0.000, 20:56:49.719, 1592535409719
97, 18317.46, 9195.13, -187500.02, 187500.00, -187500.02, -187500.02, -187500.02, -187500.02, 0.000, 0.000, 0.000, 20:56:49.732, 1592535409732
98, 18318.39, 9005.79, -187500.02, 187500.00, -187500.02, -187500.02, -187500.02, -187500.02, 0.000, 0.000, 0.000, 20:56:49.733, 1592535409733
99, 18328.29, 9271.68, -187500.02, 187500.00, -187500.02, -187500.02, -187500.02, -187500.02, 0.018, -0.036, 0.970, 20:56:49.734, 1592535409734
100, 18341.60, 9568.07, -187500.02, 187500.00, -187500.02, -187500.02, -187500.02, -187500.02, 0.000, 0.000, 0.000, 20:56:49.735, 1592535409735
101, 18339.03, 9268.17, -187500.02, 187500.00, -187500.02, -187500.02, -187500.02, -187500.02, 0.000, 0.000, 0.000, 20:56:49.746, 1592535409746
102, 18334.11, 8984.37, -187500.02, 187500.00, -187500.02, -187500.02, -187500.02, -187500.02, 0.000, 0.000, 0.000, 20:56:49.747, 1592535409747
103, 18345.84, 9196.60, -187500.02, 187500.00, -187500.02, -187500.02, -187500.02, -187500.02, 0.000, 0.000, 0.000, 20:56:49.747, 1592535409747
104, 18356.66, 9561.05, -187500.02, 187500.00, -187500.02, -187500.02, -187500.02, -187500.02, 0.000, 0.000, 0.000, 20:56:49.747, 1592535409747
105, 18342.36, 9346.52, -187500.02, 187500.00, -187500.02, -187500.02, -187500.02, -187500.02, 0.000, 0.000, 0.000, 20:56:49.761, 1592535409761
106, 18335.94, 9007.48, -187500.02, 187500.00, -187500.02, -187500.02, -187500.02, -187500.02, 0.000, 0.000, 0.000, 20:56:49.761, 1592535409761
107, 18330.04, 9125.68, -187500.02, 187500.00, -187500.02, -187500.02, -187500.02, -187500.02, 0.000, 0.000, 0.000, 20:56:49.761, 1592535409761
108, 18342.60, 9528.15, -187500.02, 187500.00, -187500.02, -187500.02, -187500.02, -187500.02, 0.000, 0.000, 0.000, 20:56:49.762, 1592535409762
109, 18343.88, 9444.37, -187500.02, 187500.00, -187500.02, -187500.02, -187500.02, -187500.02, 0.016, -0.036, 0.972, 20:56:49.776, 1592535409776
110, 18337.66, 9060.03, -187500.02, 187500.00, -187500.02, -187500.02, -187500.02, -187500.02, 0.000, 0.000, 0.000, 20:56:49.776, 1592535409776
111, 18348.19, 9116.25, -187500.02, 187500.00, -187500.02, -187500.02, -187500.02, -187500.02, 0.000, 0.000, 0.000, 20:56:49.776, 1592535409776
112, 18358.29, 9517.33, -187500.02, 187500.00, -187500.02, -187500.02, -187500.02, -187500.02, 0.000, 0.000, 0.000, 20:56:49.791, 1592535409791
113, 18353.62, 9534.34, -187500.02, 187500.00, -187500.02, -187500.02, -187500.02, -187500.02, 0.000, 0.000, 0.000, 20:56:49.791, 1592535409791
114, 18355.05, 9119.42, -187500.02, 187500.00, -187500.02, -187500.02, -187500.02, -187500.02, 0.000, 0.000, 0.000, 20:56:49.791, 1592535409791
115, 18366.14, 9090.92, -187500.02, 187500.00, -187500.02, -187500.02, -187500.02, -187500.02, 0.000, 0.000, 0.000, 20:56:49.791, 1592535409791
116, 18355.61, 9446.50, -187500.02, 187500.00, -187500.02, -187500.02, -187500.02, -187500.02, 0.000, 0.000, 0.000, 20:56:49.806, 1592535409806
117, 18338.62, 9557.63, -187500.02, 187500.00, -187500.02, -187500.02, -187500.02, -187500.02, 0.000, 0.000, 0.000, 20:56:49.806, 1592535409806
118, 18326.69, 9146.94, -187500.02, 187500.00, -187500.02, -187500.02, -187500.02, -187500.02, 0.020, -0.034, 0.974, 20:56:49.806, 1592535409806
119, 18332.30, 9026.55, -187500.02, 187500.00, -187500.02, -187500.02, -187500.02, -187500.02, 0.000, 0.000, 0.000, 20:56:49.806, 1592535409806
120, 18349.22, 9367.53, -187500.02, 187500.00, -187500.02, -187500.02, -187500.02, -187500.02, 0.000, 0.000, 0.000, 20:56:49.822, 1592535409822
121, 18345.06, 9594.11, -187500.02, 187500.00, -187500.02, -187500.02, -187500.02, -187500.02, 0.000, 0.000, 0.000, 20:56:49.822, 1592535409822
122, 18340.99, 9235.56, -187500.02, 187500.00, -187500.02, -187500.02, -187500.02, -187500.02, 0.000, 0.000, 0.000, 20:56:49.823, 1592535409823
123, 18347.27, 9033.81, -187500.02, 187500.00, -187500.02, -187500.02, -187500.02, -187500.02, 0.000, 0.000, 0.000, 20:56:49.823, 1592535409823
124, 18357.38, 9301.32, -187500.02, 187500.00, -187500.02, -187500.02, -187500.02, -187500.02, 0.000, 0.000, 0.000, 20:56:49.837, 1592535409837
125, 18378.12, 9617.40, -187500.02, 187500.00, -187500.02, -187500.02, -187500.02, -187500.02, 0.000, 0.000, 0.000, 20:56:49.838, 1592535409838
126, 18375.39, 9331.63, -187500.02, 187500.00, -187500.02, -187500.02, -187500.02, -187500.02, 0.000, 0.000, 0.000, 20:56:49.838, 1592535409838
127, 18352.99, 9026.17, -187500.02, 187500.00, -187500.02, -187500.02, -187500.02, -187500.02, 0.000, 0.000, 0.000, 20:56:49.852, 1592535409852
128, 18360.57, 9214.57, -187500.02, 187500.00, -187500.02, -187500.02, -187500.02, -187500.02, 0.016, -0.036, 0.972, 20:56:49.852, 1592535409852
129, 18371.86, 9575.71, -187500.02, 187500.00, -187500.02, -187500.02, -187500.02, -187500.02, 0.000, 0.000, 0.000, 20:56:49.852, 1592535409852
130, 18368.26, 9404.45, -187500.02, 187500.00, -187500.02, -187500.02, -187500.02, -187500.02, 0.000, 0.000, 0.000, 20:56:49.852, 1592535409852
131, 18359.41, 9052.75, -187500.02, 187500.00, -187500.02, -187500.02, -187500.02, -187500.02, 0.000, 0.000, 0.000, 20:56:49.867, 1592535409867
132, 18366.65, 9173.47, -187500.02, 187500.00, -187500.02, -187500.02, -187500.02, -187500.02, 0.000, 0.000, 0.000, 20:56:49.868, 1592535409868
133, 18363.25, 9551.75, -187500.02, 187500.00, -187500.02, -187500.02, -187500.02, -187500.02, 0.000, 0.000, 0.000, 20:56:49.869, 1592535409869
134, 18373.56, 9485.41, -187500.02, 187500.00, -187500.02, -187500.02, -187500.02, -187500.02, 0.000, 0.000, 0.000, 20:56:49.870, 1592535409870
135, 18365.56, 9074.47, -187500.02, 187500.00, -187500.02, -187500.02, -187500.02, -187500.02, 0.000, 0.000, 0.000, 20:56:49.883, 1592535409883
136, 18358.52, 9098.01, -187500.02, 187500.00, -187500.02, -187500.02, -187500.02, -187500.02, 0.000, 0.000, 0.000, 20:56:49.884, 1592535409884
137, 18371.08, 9486.21, -187500.02, 187500.00, -187500.02, -187500.02, -187500.02, -187500.02, 0.000, 0.000, 0.000, 20:56:49.884, 1592535409884
138, 18371.23, 9522.60, -187500.02, 187500.00, -187500.02, -187500.02, -187500.02, -187500.02, 0.016, -0.032, 0.970, 20:56:49.885, 1592535409885
139, 18359.19, 9101.83, -187500.02, 187500.00, -187500.02, -187500.02, -187500.02, -187500.02, 0.000, 0.000, 0.000, 20:56:49.895, 1592535409895
140, 18363.16, 9051.43, -187500.02, 187500.00, -187500.02, -187500.02, -187500.02, -187500.02, 0.000, 0.000, 0.000, 20:56:49.896, 1592535409896
141, 18366.32, 9388.25, -187500.02, 187500.00, -187500.02, -187500.02, -187500.02, -187500.02, 0.000, 0.000, 0.000, 20:56:49.896, 1592535409896
142, 18354.89, 9512.28, -187500.02, 187500.00, -187500.02, -187500.02, -187500.02, -187500.02, 0.000, 0.000, 0.000, 20:56:49.911, 1592535409911
143, 18346.67, 9105.18, -187500.02, 187500.00, -187500.02, -187500.02, -187500.02, -187500.02, 0.000, 0.000, 0.000, 20:56:49.911, 1592535409911
144, 18345.69, 8964.12, -187500.02, 187500.00, -187500.02, -187500.02, -187500.02, -187500.02, 0.000, 0.000, 0.000, 20:56:49.912, 1592535409912
145, 18353.71, 9269.92, -187500.02, 187500.00, -187500.02, -187500.02, -187500.02, -187500.02, 0.000, 0.000, 0.000, 20:56:49.912, 1592535409912
146, 18355.50, 9513.68, -187500.02, 187500.00, -187500.02, -187500.02, -187500.02, -187500.02, 0.000, 0.000, 0.000, 20:56:49.926, 1592535409926
147, 18345.30, 9172.15, -187500.02, 187500.00, -187500.02, -187500.02, -187500.02, -187500.02, 0.000, 0.000, 0.000, 20:56:49.926, 1592535409926
148, 18338.13, 8950.06, -187500.02, 187500.00, -187500.02, -187500.02, -187500.02, -187500.02, 0.016, -0.028, 0.976, 20:56:49.926, 1592535409926
149, 18349.40, 9192.62, -187500.02, 187500.00, -187500.02, -187500.02, -187500.02, -187500.02, 0.000, 0.000, 0.000, 20:56:49.926, 1592535409926
150, 18350.94, 9518.20, -187500.02, 187500.00, -187500.02, -187500.02, -187500.02, -187500.02, 0.000, 0.000, 0.000, 20:56:49.941, 1592535409941
151, 18340.77, 9261.76, -187500.02, 187500.00, -187500.02, -187500.02, -187500.02, -187500.02, 0.000, 0.000, 0.000, 20:56:49.941, 1592535409941
152, 18345.10, 8970.36, -187500.02, 187500.00, -187500.02, -187500.02, -187500.02, -187500.02, 0.000, 0.000, 0.000, 20:56:49.941, 1592535409941
153, 18344.08, 9143.27, -187500.02, 187500.00, -187500.02, -187500.02, -187500.02, -187500.02, 0.000, 0.000, 0.000, 20:56:49.942, 1592535409942
154, 18344.10, 9515.79, -187500.02, 187500.00, -187500.02, -187500.02, -187500.02, -187500.02, 0.000, 0.000, 0.000, 20:56:49.956, 1592535409956
155, 18347.23, 9362.36, -187500.02, 187500.00, -187500.02, -187500.02, -187500.02, -187500.02, 0.000, 0.000, 0.000, 20:56:49.957, 1592535409957
156, 18332.97, 9006.72, -187500.02, 187500.00, -187500.02, -187500.02, -187500.02, -187500.02, 0.000, 0.000, 0.000, 20:56:49.957, 1592535409957
157, 18325.59, 9097.92, -187500.02, 187500.00, -187500.02, -187500.02, -187500.02, -187500.02, 0.000, 0.000, 0.000, 20:56:49.971, 1592535409971
158, 18339.23, 9488.94, -187500.02, 187500.00, -187500.02, -187500.02, -187500.02, -187500.02, 0.016, -0.034, 0.980, 20:56:49.972, 1592535409972
159, 18349.62, 9462.48, -187500.02, 187500.00, -187500.02, -187500.02, -187500.02, -187500.02, 0.000, 0.000, 0.000, 20:56:49.972, 1592535409972
160, 18342.58, 9076.28, -187500.02, 187500.00, -187500.02, -187500.02, -187500.02, -187500.02, 0.000, 0.000, 0.000, 20:56:49.972, 1592535409972
161, 18352.30, 9100.65, -187500.02, 187500.00, -187500.02, -187500.02, -187500.02, -187500.02, 0.000, 0.000, 0.000, 20:56:49.986, 1592535409986
162, 18358.54, 9482.53, -187500.02, 187500.00, -187500.02, -187500.02, -187500.02, -187500.02, 0.000, 0.000, 0.000, 20:56:49.987, 1592535409987
163, 18348.61, 9545.78, -187500.02, 187500.00, -187500.02, -187500.02, -187500.02, -187500.02, 0.000, 0.000, 0.000, 20:56:49.987, 1592535409987
164, 18354.16, 9157.87, -187500.02, 187500.00, -187500.02, -187500.02, -187500.02, -187500.02, 0.000, 0.000, 0.000, 20:56:49.987, 1592535409987
165, 18354.74, 9102.73, -187500.02, 187500.00, -187500.02, -187500.02, -187500.02, -187500.02, 0.000, 0.000, 0.000, 20:56:50.002, 1592535410002
166, 18369.87, 9473.41, -187500.02, 187500.00, -187500.02, -187500.02, -187500.02, -187500.02, 0.000, 0.000, 0.000, 20:56:50.003, 1592535410003
167, 18372.93, 9645.76, -187500.02, 187500.00, -187500.02, -187500.02, -187500.02, -187500.02, 0.000, 0.000, 0.000, 20:56:50.003, 1592535410003
168, 18352.48, 9244.30, -187500.02, 187500.00, -187500.02, -187500.02, -187500.02, -187500.02, 0.016, -0.032, 0.978, 20:56:50.003, 1592535410003
169, 18341.93, 9083.15, -187500.02, 187500.00, -187500.02, -187500.02, -187500.02, -187500.02, 0.000, 0.000, 0.000, 20:56:50.018, 1592535410018
170, 18357.80, 9404.81, -187500.02, 187500.00, -187500.02, -187500.02, -187500.02, -187500.02, 0.000, 0.000, 0.000, 20:56:50.019, 1592535410019
171, 18355.23, 9681.32, -187500.02, 187500.00, -187500.02, -187500.02, -187500.02, -187500.02, 0.000, 0.000, 0.000, 20:56:50.019, 1592535410019
172, 18344.95, 9346.69, -187500.02, 187500.00, -187500.02, -187500.02, -187500.02, -187500.02, 0.000, 0.000, 0.000, 20:56:50.032, 1592535410032
173, 18343.74, 9097.27, -187500.02, 187500.00, -187500.02, -187500.02, -187500.02, -187500.02, 0.000, 0.000, 0.000, 20:56:50.033, 1592535410033
174, 18358.92, 9364.62, -187500.02, 187500.00, -187500.02, -187500.02, -187500.02, -187500.02, 0.000, 0.000, 0.000, 20:56:50.034, 1592535410034
175, 18380.04, 9752.42, -187500.02, 187500.00, -187500.02, -187500.02, -187500.02, -187500.02, 0.000, 0.000, 0.000, 20:56:50.035, 1592535410035
176, 18367.75, 9484.60, -187500.02, 187500.00, -187500.02, -187500.02, -187500.02, -187500.02, 0.000, 0.000, 0.000, 20:56:50.048, 1592535410048
177, 18360.93, 9108.40, -187500.02, 187500.00, -187500.02, -187500.02, -187500.02, -187500.02, 0.000, 0.000, 0.000, 20:56:50.049, 1592535410049
178, 18361.62, 9295.29, -187500.02, 187500.00, -187500.02, -187500.02, -187500.02, -187500.02, 0.016, -0.032, 0.976, 20:56:50.050, 1592535410050
179, 18377.20, 9759.73, -187500.02, 187500.00, -187500.02, -187500.02, -187500.02, -187500.02, 0.000, 0.000, 0.000, 20:56:50.050, 1592535410050
180, 18373.56, 9595.02, -187500.02, 187500.00, -187500.02, -187500.02, -187500.02, -187500.02, 0.000, 0.000, 0.000, 20:56:50.061, 1592535410061
181, 18357.15, 9108.00, -187500.02, 187500.00, -187500.02, -187500.02, -187500.02, -187500.02, 0.000, 0.000, 0.000, 20:56:50.061, 1592535410061
182, 18362.49, 9211.13, -187500.02, 187500.00, -187500.02, -187500.02, -187500.02, -187500.02, 0.000, 0.000, 0.000, 20:56:50.062, 1592535410062
183, 18377.54, 9705.48, -187500.02, 187500.00, -187500.02, -187500.02, -187500.02, -187500.02, 0.000, 0.000, 0.000, 20:56:50.062, 1592535410062
184, 18366.47, 9665.52, -187500.02, 187500.00, -187500.02, -187500.02, -187500.02, -187500.02, 0.000, 0.000, 0.000, 20:56:50.076, 1592535410076
185, 18339.03, 9130.26, -187500.02, 187500.00, -187500.02, -187500.02, -187500.02, -187500.02, 0.000, 0.000, 0.000, 20:56:50.077, 1592535410077
186, 18343.05, 9114.04, -187500.02, 187500.00, -187500.02, -187500.02, -187500.02, -187500.02, 0.000, 0.000, 0.000, 20:56:50.077, 1592535410077
187, 18363.03, 9609.60, -187500.02, 187500.00, -187500.02, -187500.02, -187500.02, -187500.02, 0.000, 0.000, 0.000, 20:56:50.091, 1592535410091
188, 18358.74, 9713.80, -187500.02, 187500.00, -187500.02, -187500.02, -187500.02, -187500.02, 0.020, -0.032, 0.976, 20:56:50.091, 1592535410091
189, 18349.51, 9172.69, -187500.02, 187500.00, -187500.02, -187500.02, -187500.02, -187500.02, 0.000, 0.000, 0.000, 20:56:50.091, 1592535410091
190, 18360.93, 9063.27, -187500.02, 187500.00, -187500.02, -187500.02, -187500.02, -187500.02, 0.000, 0.000, 0.000, 20:56:50.091, 1592535410091
191, 18363.66, 9521.31, -187500.02, 187500.00, -187500.02, -187500.02, -187500.02, -187500.02, 0.000, 0.000, 0.000, 20:56:50.106, 1592535410106
192, 18360.86, 9777.68, -187500.02, 187500.00, -187500.02, -187500.02, -187500.02, -187500.02, 0.000, 0.000, 0.000, 20:56:50.106, 1592535410106
193, 18342.31, 9280.04, -187500.02, 187500.00, -187500.02, -187500.02, -187500.02, -187500.02, 0.000, 0.000, 0.000, 20:56:50.107, 1592535410107
194, 18324.05, 9011.87, -187500.02, 187500.00, -187500.02, -187500.02, -187500.02, -187500.02, 0.000, 0.000, 0.000, 20:56:50.107, 1592535410107
195, 18345.13, 9411.54, -187500.02, 187500.00, -187500.02, -187500.02, -187500.02, -187500.02, 0.000, 0.000, 0.000, 20:56:50.121, 1592535410121
196, 18365.00, 9796.10, -187500.02, 187500.00, -187500.02, -187500.02, -187500.02, -187500.02, 0.000, 0.000, 0.000, 20:56:50.122, 1592535410122
197, 18355.12, 9383.64, -187500.02, 187500.00, -187500.02, -187500.02, -187500.02, -187500.02, 0.000, 0.000, 0.000, 20:56:50.123, 1592535410123
198, 18355.36, 9028.72, -187500.02, 187500.00, -187500.02, -187500.02, -187500.02, -187500.02, 0.024, -0.038, 0.972, 20:56:50.123, 1592535410123
199, 18363.63, 9352.62, -187500.02, 187500.00, -187500.02, -187500.02, -187500.02, -187500.02, 0.000, 0.000, 0.000, 20:56:50.136, 1592535410136
200, 18357.67, 9811.41, -187500.02, 187500.00, -187500.02, -187500.02, -187500.02, -187500.02, 0.000, 0.000, 0.000, 20:56:50.136, 1592535410136
201, 18350.51, 9507.67, -187500.02, 187500.00, -187500.02, -187500.02, -187500.02, -187500.02, 0.000, 0.000, 0.000, 20:56:50.136, 1592535410136
202, 18350.87, 9050.51, -187500.02, 187500.00, -187500.02, -187500.02, -187500.02, -187500.02, 0.000, 0.000, 0.000, 20:56:50.151, 1592535410151
203, 18355.47, 9264.08, -187500.02, 187500.00, -187500.02, -187500.02, -187500.02, -187500.02, 0.000, 0.000, 0.000, 20:56:50.151, 1592535410151
204, 18354.18, 9770.57, -187500.02, 187500.00, -187500.02, -187500.02, -187500.02, -187500.02, 0.000, 0.000, 0.000, 20:56:50.151, 1592535410151
205, 18350.96, 9603.45, -187500.02, 187500.00, -187500.02, -187500.02, -187500.02, -187500.02, 0.000, 0.000, 0.000, 20:56:50.151, 1592535410151
206, 18334.76, 9080.02, -187500.02, 187500.00, -187500.02, -187500.02, -187500.02, -187500.02, 0.000, 0.000, 0.000, 20:56:50.166, 1592535410166
207, 18332.92, 9167.41, -187500.02, 187500.00, -187500.02, -187500.02, -187500.02, -187500.02, 0.020, -0.028, 0.974, 20:56:50.167, 1592535410167
208, 18352.10, 9704.68, -187500.02, 187500.00, -187500.02, -187500.02, -187500.02, -187500.02, 0.000, 0.000, 0.000, 20:56:50.167, 1592535410167
209, 18349.35, 9691.85, -187500.02, 187500.00, -187500.02, -187500.02, -187500.02, -187500.02, 0.000, 0.000, 0.000, 20:56:50.167, 1592535410167
210, 18332.03, 9120.72, -187500.02, 187500.00, -187500.02, -187500.02, -187500.02, -187500.02, 0.000, 0.000, 0.000, 20:56:50.182, 1592535410182
211, 18333.88, 9095.13, -187500.02, 187500.00, -187500.02, -187500.02, -187500.02, -187500.02, 0.000, 0.000, 0.000, 20:56:50.182, 1592535410182
212, 18348.03, 9615.56, -187500.02, 187500.00, -187500.02, -187500.02, -187500.02, -187500.02, 0.000, 0.000, 0.000, 20:56:50.183, 1592535410183
213, 18346.29, 9747.01, -187500.02, 187500.00, -187500.02, -187500.02, -187500.02, -187500.02, 0.000, 0.000, 0.000, 20:56:50.184, 1592535410184
214, 18335.67, 9189.74, -187500.02, 187500.00, -187500.02, -187500.02, -187500.02, -187500.02, 0.000, 0.000, 0.000, 20:56:50.197, 1592535410197
215, 18337.28, 9050.38, -187500.02, 187500.00, -187500.02, -187500.02, -187500.02, -187500.02, 0.000, 0.000, 0.000, 20:56:50.198, 1592535410198
216, 18355.39, 9528.39, -187500.02, 187500.00, -187500.02, -187500.02, -187500.02, -187500.02, 0.000, 0.000, 0.000, 20:56:50.198, 1592535410198
217, 18362.16, 9785.50, -187500.02, 187500.00, -187500.02, -187500.02, -187500.02, -187500.02, 0.018, -0.034, 0.970, 20:56:50.211, 1592535410211
218, 18351.25, 9272.31, -187500.02, 187500.00, -187500.02, -187500.02, -187500.02, -187500.02, 0.000, 0.000, 0.000, 20:56:50.211, 1592535410211
219, 18347.29, 9016.16, -187500.02, 187500.00, -187500.02, -187500.02, -187500.02, -187500.02, 0.000, 0.000, 0.000, 20:56:50.211, 1592535410211
220, 18344.59, 9405.97, -187500.02, 187500.00, -187500.02, -187500.02, -187500.02, -187500.02, 0.000, 0.000, 0.000, 20:56:50.211, 1592535410211
221, 18352.37, 9799.07, -187500.02, 187500.00, -187500.02, -187500.02, -187500.02, -187500.02, 0.000, 0.000, 0.000, 20:56:50.227, 1592535410227
222, 18344.05, 9380.33, -187500.02, 187500.00, -187500.02, -187500.02, -187500.02, -187500.02, 0.000, 0.000, 0.000, 20:56:50.227, 1592535410227
223, 18335.45, 8996.33, -187500.02, 187500.00, -187500.02, -187500.02, -187500.02, -187500.02, 0.000, 0.000, 0.000, 20:56:50.227, 1592535410227
224, 18345.78, 9302.77, -187500.02, 187500.00, -187500.02, -187500.02, -187500.02, -187500.02, 0.000, 0.000, 0.000, 20:56:50.227, 1592535410227
225, 18358.29, 9758.39, -187500.02, 187500.00, -187500.02, -187500.02, -187500.02, -187500.02, 0.000, 0.000, 0.000, 20:56:50.241, 1592535410241
226, 18349.69, 9467.37, -187500.02, 187500.00, -187500.02, -187500.02, -187500.02, -187500.02, 0.000, 0.000, 0.000, 20:56:50.242, 1592535410242
227, 18326.62, 8994.39, -187500.02, 187500.00, -187500.02, -187500.02, -187500.02, -187500.02, 0.022, -0.034, 0.970, 20:56:50.242, 1592535410242
228, 18332.63, 9195.22, -187500.02, 187500.00, -187500.02, -187500.02, -187500.02, -187500.02, 0.000, 0.000, 0.000, 20:56:50.242, 1592535410242
229, 18355.61, 9720.59, -187500.02, 187500.00, -187500.02, -187500.02, -187500.02, -187500.02, 0.000, 0.000, 0.000, 20:56:50.257, 1592535410257
230, 18349.20, 9577.74, -187500.02, 187500.00, -187500.02, -187500.02, -187500.02, -187500.02, 0.000, 0.000, 0.000, 20:56:50.257, 1592535410257
231, 18334.20, 9044.34, -187500.02, 187500.00, -187500.02, -187500.02, -187500.02, -187500.02, 0.000, 0.000, 0.000, 20:56:50.257, 1592535410257
232, 18341.46, 9131.87, -187500.02, 187500.00, -187500.02, -187500.02, -187500.02, -187500.02, 0.000, 0.000, 0.000, 20:56:50.257, 1592535410257
233, 18347.79, 9672.90, -187500.02, 187500.00, -187500.02, -187500.02, -187500.02, -187500.02, 0.000, 0.000, 0.000, 20:56:50.271, 1592535410271
234, 18348.97, 9684.07, -187500.02, 187500.00, -187500.02, -187500.02, -187500.02, -187500.02, 0.000, 0.000, 0.000, 20:56:50.272, 1592535410272
235, 18337.10, 9108.74, -187500.02, 187500.00, -187500.02, -187500.02, -187500.02, -187500.02, 0.000, 0.000, 0.000, 20:56:50.272, 1592535410272
236, 18338.00, 9051.52, -187500.02, 187500.00, -187500.02, -187500.02, -187500.02, -187500.02, 0.000, 0.000, 0.000, 20:56:50.285, 1592535410285
237, 18355.16, 9566.08, -187500.02, 187500.00, -187500.02, -187500.02, -187500.02, -187500.02, 0.020, -0.036, 0.964, 20:56:50.286, 1592535410286
238, 18354.38, 9718.11, -187500.02, 187500.00, -187500.02, -187500.02, -187500.02, -187500.02, 0.000, 0.000, 0.000, 20:56:50.286, 1592535410286
239, 18345.89, 9167.57, -187500.02, 187500.00, -187500.02, -187500.02, -187500.02, -187500.02, 0.000, 0.000, 0.000, 20:56:50.286, 1592535410286
240, 18344.12, 9004.60, -187500.02, 187500.00, -187500.02, -187500.02, -187500.02, -187500.02, 0.000, 0.000, 0.000, 20:56:50.303, 1592535410303
241, 18358.56, 9475.78, -187500.02, 187500.00, -187500.02, -187500.02, -187500.02, -187500.02, 0.000, 0.000, 0.000, 20:56:50.303, 1592535410303
242, 18351.18, 9759.73, -187500.02, 187500.00, -187500.02, -187500.02, -187500.02, -187500.02, 0.000, 0.000, 0.000, 20:56:50.303, 1592535410303
243, 18339.27, 9260.89, -187500.02, 187500.00, -187500.02, -187500.02, -187500.02, -187500.02, 0.000, 0.000, 0.000, 20:56:50.303, 1592535410303
244, 18340.97, 8982.61, -187500.02, 187500.00, -187500.02, -187500.02, -187500.02, -187500.02, 0.000, 0.000, 0.000, 20:56:50.317, 1592535410317
245, 18347.50, 9366.79, -187500.02, 187500.00, -187500.02, -187500.02, -187500.02, -187500.02, 0.000, 0.000, 0.000, 20:56:50.318, 1592535410318
246, 18353.15, 9764.34, -187500.02, 187500.00, -187500.02, -187500.02, -187500.02, -187500.02, 0.000, 0.000, 0.000, 20:56:50.318, 1592535410318
247, 18338.18, 9366.57, -187500.02, 187500.00, -187500.02, -187500.02, -187500.02, -187500.02, 0.018, -0.034, 0.972, 20:56:50.318, 1592535410318
248, 18333.10, 8973.04, -187500.02, 187500.00, -187500.02, -187500.02, -187500.02, -187500.02, 0.000, 0.000, 0.000, 20:56:50.332, 1592535410332
249, 18338.11, 9252.12, -187500.02, 187500.00, -187500.02, -187500.02, -187500.02, -187500.02, 0.000, 0.000, 0.000, 20:56:50.333, 1592535410333
250, 18342.36, 9738.77, -187500.02, 187500.00, -187500.02, -187500.02, -187500.02, -187500.02, 0.000, 0.000, 0.000, 20:56:50.334, 1592535410334
251, 18340.86, 9486.10, -187500.02, 187500.00, -187500.02, -187500.02, -187500.02, -187500.02, 0.000, 0.000, 0.000, 20:56:50.348, 1592535410348
252, 18326.91, 8993.40, -187500.02, 187500.00, -187500.02, -187500.02, -187500.02, -187500.02, 0.000, 0.000, 0.000, 20:56:50.349, 1592535410349
253, 18328.50, 9162.43, -187500.02, 187500.00, -187500.02, -187500.02, -187500.02, -187500.02, 0.000, 0.000, 0.000, 20:56:50.349, 1592535410349
254, 18350.69, 9708.03, -187500.02, 187500.00, -187500.02, -187500.02, -187500.02, -187500.02, 0.000, 0.000, 0.000, 20:56:50.350, 1592535410350
255, 18338.55, 9582.89, -187500.02, 187500.00, -187500.02, -187500.02, -187500.02, -187500.02, 0.000, 0.000, 0.000, 20:56:50.363, 1592535410363
0, 18329.35, 9032.79, -187500.02, 187500.00, -187500.02, -187500.02, -187500.02, -187500.02, 0.000, 0.000, 0.000, 20:56:50.364, 1592535410364
1, 18333.62, 9099.75, -187500.02, 187500.00, -187500.02, -187500.02, -187500.02, -187500.02, 0.016, -0.034, 0.972, 20:56:50.364, 1592535410364
2, 18347.38, 9635.41, -187500.02, 187500.00, -187500.02, -187500.02, -187500.02, -187500.02, 0.000, 0.000, 0.000, 20:56:50.365, 1592535410365
3, 18342.27, 9675.82, -187500.02, 187500.00, -187500.02, -187500.02, -187500.02, -187500.02, 0.000, 0.000, 0.000, 20:56:50.376, 1592535410376
4, 18325.84, 9121.55, -187500.02, 187500.00, -187500.02, -187500.02, -187500.02, -187500.02, 0.000, 0.000, 0.000, 20:56:50.377, 1592535410377
5, 18331.47, 9059.88, -187500.02, 187500.00, -187500.02, -187500.02, -187500.02, -187500.02, 0.000, 0.000, 0.000, 20:56:50.377, 1592535410377
6, 18333.91, 9547.99, -187500.02, 187500.00, -187500.02, -187500.02, -187500.02, -187500.02, 0.000, 0.000, 0.000, 20:56:50.377, 1592535410377
7, 18344.21, 9750.12, -187500.02, 187500.00, -187500.02, -187500.02, -187500.02, -187500.02, 0.000, 0.000, 0.000, 20:56:50.392, 1592535410392
8, 18331.85, 9216.65, -187500.02, 187500.00, -187500.02, -187500.02, -187500.02, -187500.02, 0.000, 0.000, 0.000, 20:56:50.392, 1592535410392
9, 18325.52, 9021.45, -187500.02, 187500.00, -187500.02, -187500.02, -187500.02, -187500.02, 0.000, 0.000, 0.000, 20:56:50.393, 1592535410393
10, 18337.42, 9466.43, -187500.02, 187500.00, -187500.02, -187500.02, -187500.02, -187500.02, 0.000, 0.000, 0.000, 20:56:50.409, 1592535410409
11, 18339.72, 9768.05, -187500.02, 187500.00, -187500.02, -187500.02, -187500.02, -187500.02, 0.018, -0.030, 0.974, 20:56:50.410, 1592535410410
12, 18328.74, 9298.10, -187500.02, 187500.00, -187500.02, -187500.02, -187500.02, -187500.02, 0.000, 0.000, 0.000, 20:56:50.410, 1592535410410
13, 18329.73, 9002.05, -187500.02, 187500.00, -187500.02, -187500.02, -187500.02, -187500.02, 0.000, 0.000, 0.000, 20:56:50.410, 1592535410410
14, 18339.34, 9370.14, -187500.02, 187500.00, -187500.02, -187500.02, -187500.02, -187500.02, 0.000, 0.000, 0.000, 20:56:50.423, 1592535410423
15, 18342.24, 9791.16, -187500.02, 187500.00, -187500.02, -187500.02, -187500.02, -187500.02, 0.000, 0.000, 0.000, 20:56:50.424, 1592535410424
16, 18336.50, 9417.77, -187500.02, 187500.00, -187500.02, -187500.02, -187500.02, -187500.02, 0.000, 0.000, 0.000, 20:56:50.425, 1592535410425
17, 18327.69, 9003.86, -187500.02, 187500.00, -187500.02, -187500.02, -187500.02, -187500.02, 0.000, 0.000, 0.000, 20:56:50.425, 1592535410425
18, 18343.83, 9275.30, -187500.02, 187500.00, -187500.02, -187500.02, -187500.02, -187500.02, 0.000, 0.000, 0.000, 20:56:50.438, 1592535410438
19, 18345.95, 9768.05, -187500.02, 187500.00, -187500.02, -187500.02, -187500.02, -187500.02, 0.000, 0.000, 0.000, 20:56:50.439, 1592535410439
20, 18331.89, 9534.16, -187500.02, 187500.00, -187500.02, -187500.02, -187500.02, -187500.02, 0.000, 0.000, 0.000, 20:56:50.439, 1592535410439
21, 18324.50, 9040.81, -187500.02, 187500.00, -187500.02, -187500.02, -187500.02, -187500.02, 0.020, -0.036, 0.974, 20:56:50.439, 1592535410439
22, 18333.12, 9204.18, -187500.02, 187500.00, -187500.02, -187500.02, -187500.02, -187500.02, 0.000, 0.000, 0.000, 20:56:50.452, 1592535410452
23, 18329.37, 9732.28, -187500.02, 187500.00, -187500.02, -187500.02, -187500.02, -187500.02, 0.000, 0.000, 0.000, 20:56:50.453, 1592535410453
24, 18318.91, 9638.72, -187500.02, 187500.00, -187500.02, -187500.02, -187500.02, -187500.02, 0.000, 0.000, 0.000, 20:56:50.453, 1592535410453
25, 18310.08, 9091.71, -187500.02, 187500.00, -187500.02, -187500.02, -187500.02, -187500.02, 0.000, 0.000, 0.000, 20:56:50.467, 1592535410467
26, 18323.02, 9137.88, -187500.02, 187500.00, -187500.02, -187500.02, -187500.02, -187500.02, 0.000, 0.000, 0.000, 20:56:50.468, 1592535410468
27, 18331.56, 9673.50, -187500.02, 187500.00, -187500.02, -187500.02, -187500.02, -187500.02, 0.000, 0.000, 0.000, 20:56:50.468, 1592535410468
28, 18324.52, 9734.03, -187500.02, 187500.00, -187500.02, -187500.02, -187500.02, -187500.02, 0.000, 0.000, 0.000, 20:56:50.469, 1592535410469
29, 18314.64, 9181.07, -187500.02, 187500.00, -187500.02, -187500.02, -187500.02, -187500.02, 0.000, 0.000, 0.000, 20:56:50.483, 1592535410483
30, 18317.48, 9088.35, -187500.02, 187500.00, -187500.02, -187500.02, -187500.02, -187500.02, 0.000, 0.000, 0.000, 20:56:50.484, 1592535410484
31, 18333.64, 9590.66, -187500.02, 187500.00, -187500.02, -187500.02, -187500.02, -187500.02, 0.020, -0.030, 0.976, 20:56:50.484, 1592535410484
32, 18345.04, 9817.87, -187500.02, 187500.00, -187500.02, -187500.02, -187500.02, -187500.02, 0.000, 0.000, 0.000, 20:56:50.485, 1592535410485
33, 18333.64, 9287.04, -187500.02, 187500.00, -187500.02, -187500.02, -187500.02, -187500.02, 0.000, 0.000, 0.000, 20:56:50.497, 1592535410497
34, 18323.22, 9059.34, -187500.02, 187500.00, -187500.02, -187500.02, -187500.02, -187500.02, 0.000, 0.000, 0.000, 20:56:50.498, 1592535410498
35, 18325.66, 9486.17, -187500.02, 187500.00, -187500.02, -187500.02, -187500.02, -187500.02, 0.000, 0.000, 0.000, 20:56:50.499, 1592535410499
36, 18335.38, 9835.48, -187500.02, 187500.00, -187500.02, -187500.02, -187500.02, -187500.02, 0.000, 0.000, 0.000, 20:56:50.499, 1592535410499
37, 18332.74, 9381.99, -187500.02, 187500.00, -187500.02, -187500.02, -187500.02, -187500.02, 0.000, 0.000, 0.000, 20:56:50.511, 1592535410511
38, 18318.33, 9037.30, -187500.02, 187500.00, -187500.02, -187500.02, -187500.02, -187500.02, 0.000, 0.000, 0.000, 20:56:50.511, 1592535410511
39, 18331.07, 9389.61, -187500.02, 187500.00, -187500.02, -187500.02, -187500.02, -187500.02, 0.000, 0.000, 0.000, 20:56:50.511, 1592535410511
40, 18339.40, 9829.47, -187500.02, 187500.00, -187500.02, -187500.02, -187500.02, -187500.02, 0.020, -0.034, 0.976, 20:56:50.527, 1592535410527
41, 18335.38, 9488.07, -187500.02, 187500.00, -187500.02, -187500.02, -187500.02, -187500.02, 0.000, 0.000, 0.000, 20:56:50.527, 1592535410527
42, 18330.75, 9054.74, -187500.02, 187500.00, -187500.02, -187500.02, -187500.02, -187500.02, 0.000, 0.000, 0.000, 20:56:50.527, 1592535410527
43, 18330.40, 9303.22, -187500.02, 187500.00, -187500.02, -187500.02, -187500.02, -187500.02, 0.000, 0.000, 0.000, 20:56:50.527, 1592535410527
44, 18338.40, 9792.37, -187500.02, 187500.00, -187500.02, -187500.02, -187500.02, -187500.02, 0.000, 0.000, 0.000, 20:56:50.541, 1592535410541
45, 18335.61, 9570.46, -187500.02, 187500.00, -187500.02, -187500.02, -187500.02, -187500.02, 0.000, 0.000, 0.000, 20:56:50.541, 1592535410541
46, 18318.82, 9054.22, -187500.02, 187500.00, -187500.02, -187500.02, -187500.02, -187500.02, 0.000, 0.000, 0.000, 20:56:50.542, 1592535410542
47, 18329.41, 9199.80, -187500.02, 187500.00, -187500.02, -187500.02, -187500.02, -187500.02, 0.000, 0.000, 0.000, 20:56:50.542, 1592535410542
48, 18338.11, 9734.88, -187500.02, 187500.00, -187500.02, -187500.02, -187500.02, -187500.02, 0.000, 0.000, 0.000, 20:56:50.556, 1592535410556
49, 18332.52, 9669.39, -187500.02, 187500.00, -187500.02, -187500.02, -187500.02, -187500.02, 0.000, 0.000, 0.000, 20:56:50.557, 1592535410557
50, 18330.64, 9129.12, -187500.02, 187500.00, -187500.02, -187500.02, -187500.02, -187500.02, 0.020, -0.032, 0.972, 20:56:50.557, 1592535410557
51, 18329.35, 9150.02, -187500.02, 187500.00, -187500.02, -187500.02, -187500.02, -187500.02, 0.000, 0.000, 0.000, 20:56:50.557, 1592535410557
52, 18334.89, 9673.46, -187500.02, 187500.00, -187500.02, -187500.02, -187500.02, -187500.02, 0.000, 0.000, 0.000, 20:56:50.571, 1592535410571
53, 18319.82, 9744.26, -187500.02, 187500.00, -187500.02, -187500.02, -187500.02, -187500.02, 0.000, 0.000, 0.000, 20:56:50.571, 1592535410571
54, 18310.79, 9190.14, -187500.02, 187500.00, -187500.02, -187500.02, -187500.02, -187500.02, 0.000, 0.000, 0.000, 20:56:50.572, 1592535410572
55, 18312.74, 9089.11, -187500.02, 187500.00, -187500.02, -187500.02, -187500.02, -187500.02, 0.000, 0.000, 0.000, 20:56:50.587, 1592535410587
56, 18327.27, 9576.54, -187500.02, 187500.00, -187500.02, -187500.02, -187500.02, -187500.02, 0.000, 0.000, 0.000, 20:56:50.587, 1592535410587
57, 18334.53, 9816.42, -187500.02, 187500.00, -187500.02, -187500.02, -187500.02, -187500.02, 0.000, 0.000, 0.000, 20:56:50.588, 1592535410588
58, 18328.83, 9304.41, -187500.02, 187500.00, -187500.02, -187500.02, -187500.02, -187500.02, 0.000, 0.000, 0.000, 20:56:50.588, 1592535410588
59, 18331.87, 9083.48, -187500.02, 187500.00, -187500.02, -187500.02, -187500.02, -187500.02, 0.000, 0.000, 0.000, 20:56:50.602, 1592535410602
60, 18336.81, 9496.03, -187500.02, 187500.00, -187500.02, -187500.02, -187500.02, -187500.02, 0.018, -0.036, 0.972, 20:56:50.602, 1592535410602
61, 18350.96, 9852.27, -187500.02, 187500.00, -187500.02, -187500.02, -187500.02, -187500.02, 0.000, 0.000, 0.000, 20:56:50.602, 1592535410602
62, 18340.52, 9412.83, -187500.02, 187500.00, -187500.02, -187500.02, -187500.02, -187500.02, 0.000, 0.000, 0.000, 20:56:50.603, 1592535410603
63, 18329.39, 9068.42, -187500.02, 187500.00, -187500.02, -187500.02, -187500.02, -187500.02, 0.000, 0.000, 0.000, 20:56:50.616, 1592535410616
64, 18336.74, 9398.19, -187500.02, 187500.00, -187500.02, -187500.02, -187500.02, -187500.02, 0.000, 0.000, 0.000, 20:56:50.616, 1592535410616
65, 18343.47, 9847.06, -187500.02, 187500.00, -187500.02, -187500.02, -187500.02, -187500.02, 0.000, 0.000, 0.000, 20:56:50.617, 1592535410617
