%OpenBCI Raw EEG Data
%Number of channels = 8
%Sample Rate = 250.0 Hz
%First Column = SampleIndex
%Last Column = Timestamp 
%Other Columns = EEG data in microvolts followed by Accel Data (in G) interleaved with Aux Data
0, 0.00, 0.00, 0.00, 0.00, 0.00, 0.00, 0.00, 0.00, 0.018, -0.040, 0.970, 21:27:10.537, 1592537230537
1, 15875.88, -103737.20, 187500.00, 187500.00, -187500.02, -187500.02, -187500.02, -187500.02, 0.000, 0.000, 0.000, 21:27:10.537, 1592537230537
2, 15860.73, -102816.70, 187500.00, 187500.00, -187500.02, -187500.02, -187500.02, -187500.02, 0.000, 0.000, 0.000, 21:27:10.538, 1592537230538
3, 15867.46, -101514.16, 187500.00, 187500.00, -187500.02, -187500.02, -187500.02, -187500.02, 0.000, 0.000, 0.000, 21:27:10.538, 1592537230538
4, 15878.48, -102380.95, 187500.00, 187500.00, -187500.02, -187500.02, -187500.02, -187500.02, 0.000, 0.000, 0.000, 21:27:10.551, 1592537230551
5, 15889.05, -103443.49, 187500.00, 187500.00, -187500.02, -187500.02, -187500.02, -187500.02, 0.000, 0.000, 0.000, 21:27:10.551, 1592537230551
6, 15890.48, -102829.30, 187500.00, 187500.00, -187500.02, -187500.02, -187500.02, -187500.02, 0.000, 0.000, 0.000, 21:27:10.552, 1592537230552
7, 15879.19, -101414.51, 187500.00, 187500.00, -187500.02, -187500.02, -187500.02, -187500.02, 0.016, -0.040, 0.974, 21:27:10.565, 1592537230565
8, 15877.47, -101914.74, 187500.00, 187500.00, -187500.02, -187500.02, -187500.02, -187500.02, 0.000, 0.000, 0.000, 21:27:10.566, 1592537230566
9, 15876.82, -103222.54, 187500.00, 187500.00, -187500.02, -187500.02, -187500.02, -187500.02, 0.000, 0.000, 0.000, 21:27:10.566, 1592537230566
10, 15879.44, -102899.27, 187500.00, 187500.00, -187500.02, -187500.02, -187500.02, -187500.02, 0.000, 0.000, 0.000, 21:27:10.566, 1592537230566
11, 15895.73, -101473.36, 187500.00, 187500.00, -187500.02, -187500.02, -187500.02, -187500.02, 0.000, 0.000, 0.000, 21:27:10.581, 1592537230581
12, 15903.22, -101638.48, 187500.00, 187500.00, -187500.02, -187500.02, -187500.02, -187500.02, 0.000, 0.000, 0.000, 21:27:10.581, 1592537230581
13, 15903.53, -103191.95, 187500.00, 187500.00, -187500.02, -187500.02, -187500.02, -187500.02, 0.000, 0.000, 0.000, 21:27:10.581, 1592537230581
14, 15884.24, -103232.09, 187500.00, 187500.00, -187500.02, -187500.02, -187500.02, -187500.02, 0.000, 0.000, 0.000, 21:27:10.582, 1592537230582
15, 15877.94, -101987.59, 187500.00, 187500.00, -187500.02, -187500.02, -187500.02, -187500.02, 0.000, 0.000, 0.000, 21:27:10.597, 1592537230597
16, 15864.93, -101805.17, 187500.00, 187500.00, -187500.02, -187500.02, -187500.02, -187500.02, 0.000, 0.000, 0.000, 21:27:10.598, 1592537230598
17, 15876.71, -103427.59, 187500.00, 187500.00, -187500.02, -187500.02, -187500.02, -187500.02, 0.012, -0.038, 0.978, 21:27:10.598, 1592537230598
18, 15877.63, -103797.52, 187500.00, 187500.00, -187500.02, -187500.02, -187500.02, -187500.02, 0.000, 0.000, 0.000, 21:27:10.598, 1592537230598
19, 15866.74, -102758.16, 187500.00, 187500.00, -187500.02, -187500.02, -187500.02, -187500.02, 0.000, 0.000, 0.000, 21:27:10.610, 1592537230610
20, 15880.15, -102240.48, 187500.00, 187500.00, -187500.02, -187500.02, -187500.02, -187500.02, 0.000, 0.000, 0.000, 21:27:10.610, 1592537230610
21, 15893.61, -103809.14, 187500.00, 187500.00, -187500.02, -187500.02, -187500.02, -187500.02, 0.000, 0.000, 0.000, 21:27:10.610, 1592537230610
22, 15893.90, -104528.38, 187500.00, 187500.00, -187500.02, -187500.02, -187500.02, -187500.02, 0.000, 0.000, 0.000, 21:27:10.626, 1592537230626
23, 15889.47, -103737.28, 187500.00, 187500.00, -187500.02, -187500.02, -187500.02, -187500.02, 0.000, 0.000, 0.000, 21:27:10.626, 1592537230626
24, 15897.34, -103233.70, 187500.00, 187500.00, -187500.02, -187500.02, -187500.02, -187500.02, 0.000, 0.000, 0.000, 21:27:10.626, 1592537230626
25, 15897.92, -105260.53, 187500.00, 187500.00, -187500.02, -187500.02, -187500.02, -187500.02, 0.000, 0.000, 0.000, 21:27:10.626, 1592537230626
26, 15898.33, -106339.12, 187500.00, 187500.00, -187500.02, -187500.02, -187500.02, -187500.02, 0.000, 0.000, 0.000, 21:27:10.641, 1592537230641
27, 15891.80, -105661.52, 187500.00, 187500.00, -187500.02, -187500.02, -187500.02, -187500.02, 0.008, -0.042, 0.976, 21:27:10.642, 1592537230642
28, 15889.92, -104509.27, 187500.00, 187500.00, -187500.02, -187500.02, -187500.02, -187500.02, 0.000, 0.000, 0.000, 21:27:10.642, 1592537230642
29, 15904.63, -105366.14, 187500.00, 187500.00, -187500.02, -187500.02, -187500.02, -187500.02, 0.000, 0.000, 0.000, 21:27:10.642, 1592537230642
30, 15898.97, -106434.04, 187500.00, 187500.00, -187500.02, -187500.02, -187500.02, -187500.02, 0.000, 0.000, 0.000, 21:27:10.656, 1592537230656
31, 15889.12, -105942.30, 187500.00, 187500.00, -187500.02, -187500.02, -187500.02, -187500.02, 0.000, 0.000, 0.000, 21:27:10.657, 1592537230657
32, 15874.57, -104680.48, 187500.00, 187500.00, -187500.02, -187500.02, -187500.02, -187500.02, 0.000, 0.000, 0.000, 21:27:10.658, 1592537230658
33, 15872.64, -105237.62, 187500.00, 187500.00, -187500.02, -187500.02, -187500.02, -187500.02, 0.000, 0.000, 0.000, 21:27:10.658, 1592537230658
34, 15883.84, -106637.62, 187500.00, 187500.00, -187500.02, -187500.02, -187500.02, -187500.02, 0.000, 0.000, 0.000, 21:27:10.671, 1592537230671
35, 15888.85, -106498.50, 187500.00, 187500.00, -187500.02, -187500.02, -187500.02, -187500.02, 0.000, 0.000, 0.000, 21:27:10.672, 1592537230672
36, 15880.76, -105274.01, 187500.00, 187500.00, -187500.02, -187500.02, -187500.02, -187500.02, 0.000, 0.000, 0.000, 21:27:10.672, 1592537230672
37, 15868.38, -105507.31, 187500.00, 187500.00, -187500.02, -187500.02, -187500.02, -187500.02, 0.006, -0.044, 0.976, 21:27:10.685, 1592537230685
38, 15873.38, -107129.18, 187500.00, 187500.00, -187500.02, -187500.02, -187500.02, -187500.02, 0.000, 0.000, 0.000, 21:27:10.686, 1592537230686
39, 15874.30, -107299.19, 187500.00, 187500.00, -187500.02, -187500.02, -187500.02, -187500.02, 0.000, 0.000, 0.000, 21:27:10.687, 1592537230687
40, 15884.11, -106187.39, 187500.00, 187500.00, -187500.02, -187500.02, -187500.02, -187500.02, 0.000, 0.000, 0.000, 21:27:10.687, 1592537230687
41, 15893.79, -106051.85, 187500.00, 187500.00, -187500.02, -187500.02, -187500.02, -187500.02, 0.000, 0.000, 0.000, 21:27:10.701, 1592537230701
42, 15891.15, -107609.41, 187500.00, 187500.00, -187500.02, -187500.02, -187500.02, -187500.02, 0.000, 0.000, 0.000, 21:27:10.702, 1592537230702
43, 15891.89, -107957.63, 187500.00, 187500.00, -187500.02, -187500.02, -187500.02, -187500.02, 0.000, 0.000, 0.000, 21:27:10.703, 1592537230703
44, 15881.45, -106908.16, 187500.00, 187500.00, -187500.02, -187500.02, -187500.02, -187500.02, 0.000, 0.000, 0.000, 21:27:10.703, 1592537230703
45, 15885.45, -106306.88, 187500.00, 187500.00, -187500.02, -187500.02, -187500.02, -187500.02, 0.000, 0.000, 0.000, 21:27:10.715, 1592537230715
46, 15901.97, -107700.42, 187500.00, 187500.00, -187500.02, -187500.02, -187500.02, -187500.02, 0.000, 0.000, 0.000, 21:27:10.716, 1592537230716
47, 15908.03, -108304.41, 187500.00, 187500.00, -187500.02, -187500.02, -187500.02, -187500.02, 0.008, -0.044, 0.978, 21:27:10.716, 1592537230716
48, 15906.35, -107410.45, 187500.00, 187500.00, -187500.02, -187500.02, -187500.02, -187500.02, 0.000, 0.000, 0.000, 21:27:10.716, 1592537230716
49, 15911.11, -106493.92, 187500.00, 187500.00, -187500.02, -187500.02, -187500.02, -187500.02, 0.000, 0.000, 0.000, 21:27:10.730, 1592537230730
50, 15922.82, -107694.86, 187500.00, 187500.00, -187500.02, -187500.02, -187500.02, -187500.02, 0.000, 0.000, 0.000, 21:27:10.731, 1592537230731
51, 15924.57, -108610.74, 187500.00, 187500.00, -187500.02, -187500.02, -187500.02, -187500.02, 0.000, 0.000, 0.000, 21:27:10.731, 1592537230731
52, 15903.11, -107914.46, 187500.00, 187500.00, -187500.02, -187500.02, -187500.02, -187500.02, 0.000, 0.000, 0.000, 21:27:10.745, 1592537230745
53, 15889.38, -106754.77, 187500.00, 187500.00, -187500.02, -187500.02, -187500.02, -187500.02, 0.000, 0.000, 0.000, 21:27:10.745, 1592537230745
54, 15886.93, -107619.04, 187500.00, 187500.00, -187500.02, -187500.02, -187500.02, -187500.02, 0.000, 0.000, 0.000, 21:27:10.745, 1592537230745
55, 15894.44, -108742.20, 187500.00, 187500.00, -187500.02, -187500.02, -187500.02, -187500.02, 0.000, 0.000, 0.000, 21:27:10.745, 1592537230745
56, 15899.96, -108281.32, 187500.00, 187500.00, -187500.02, -187500.02, -187500.02, -187500.02, 0.000, 0.000, 0.000, 21:27:10.760, 1592537230760
57, 15905.08, -106989.05, 187500.00, 187500.00, -187500.02, -187500.02, -187500.02, -187500.02, 0.010, -0.044, 0.980, 21:27:10.760, 1592537230760
58, 15912.52, -107491.97, 187500.00, 187500.00, -187500.02, -187500.02, -187500.02, -187500.02, 0.000, 0.000, 0.000, 21:27:10.760, 1592537230760
59, 15901.25, -108829.09, 187500.00, 187500.00, -187500.02, -187500.02, -187500.02, -187500.02, 0.000, 0.000, 0.000, 21:27:10.761, 1592537230761
60, 15894.82, -108593.42, 187500.00, 187500.00, -187500.02, -187500.02, -187500.02, -187500.02, 0.000, 0.000, 0.000, 21:27:10.776, 1592537230776
61, 15902.08, -107291.41, 187500.00, 187500.00, -187500.02, -187500.02, -187500.02, -187500.02, 0.000, 0.000, 0.000, 21:27:10.776, 1592537230776
62, 15903.58, -107332.02, 187500.00, 187500.00, -187500.02, -187500.02, -187500.02, -187500.02, 0.000, 0.000, 0.000, 21:27:10.776, 1592537230776
63, 15893.72, -108719.73, 187500.00, 187500.00, -187500.02, -187500.02, -187500.02, -187500.02, 0.000, 0.000, 0.000, 21:27:10.776, 1592537230776
64, 15896.76, -108633.32, 187500.00, 187500.00, -187500.02, -187500.02, -187500.02, -187500.02, 0.000, 0.000, 0.000, 21:27:10.791, 1592537230791
65, 15909.70, -107276.01, 187500.00, 187500.00, -187500.02, -187500.02, -187500.02, -187500.02, 0.000, 0.000, 0.000, 21:27:10.792, 1592537230792
66, 15923.29, -106858.23, 187500.00, 187500.00, -187500.02, -187500.02, -187500.02, -187500.02, 0.000, 0.000, 0.000, 21:27:10.792, 1592537230792
67, 15925.64, -108273.39, 187500.00, 187500.00, -187500.02, -187500.02, -187500.02, -187500.02, 0.010, -0.042, 0.978, 21:27:10.806, 1592537230806
68, 15924.01, -108500.46, 187500.00, 187500.00, -187500.02, -187500.02, -187500.02, -187500.02, 0.000, 0.000, 0.000, 21:27:10.806, 1592537230806
69, 15928.84, -107281.62, 187500.00, 187500.00, -187500.02, -187500.02, -187500.02, -187500.02, 0.000, 0.000, 0.000, 21:27:10.807, 1592537230807
70, 15917.39, -106478.92, 187500.00, 187500.00, -187500.02, -187500.02, -187500.02, -187500.02, 0.000, 0.000, 0.000, 21:27:10.807, 1592537230807
71, 15901.16, -107734.82, 187500.00, 187500.00, -187500.02, -187500.02, -187500.02, -187500.02, 0.000, 0.000, 0.000, 21:27:10.820, 1592537230820
72, 15888.65, -108196.59, 187500.00, 187500.00, -187500.02, -187500.02, -187500.02, -187500.02, 0.000, 0.000, 0.000, 21:27:10.821, 1592537230821
73, 15904.07, -107173.95, 187500.00, 187500.00, -187500.02, -187500.02, -187500.02, -187500.02, 0.000, 0.000, 0.000, 21:27:10.821, 1592537230821
74, 15908.05, -106080.73, 187500.00, 187500.00, -187500.02, -187500.02, -187500.02, -187500.02, 0.000, 0.000, 0.000, 21:27:10.822, 1592537230822
75, 15892.76, -107099.27, 187500.00, 187500.00, -187500.02, -187500.02, -187500.02, -187500.02, 0.000, 0.000, 0.000, 21:27:10.838, 1592537230838
76, 15905.43, -107869.45, 187500.00, 187500.00, -187500.02, -187500.02, -187500.02, -187500.02, 0.000, 0.000, 0.000, 21:27:10.839, 1592537230839
77, 15905.79, -107060.56, 187500.00, 187500.00, -187500.02, -187500.02, -187500.02, -187500.02, 0.008, -0.044, 0.976, 21:27:10.839, 1592537230839
78, 15895.31, -105730.50, 187500.00, 187500.00, -187500.02, -187500.02, -187500.02, -187500.02, 0.000, 0.000, 0.000, 21:27:10.840, 1592537230840
79, 15907.24, -106365.89, 187500.00, 187500.00, -187500.02, -187500.02, -187500.02, -187500.02, 0.000, 0.000, 0.000, 21:27:10.850, 1592537230850
80, 15905.59, -107307.93, 187500.00, 187500.00, -187500.02, -187500.02, -187500.02, -187500.02, 0.000, 0.000, 0.000, 21:27:10.850, 1592537230850
81, 15913.73, -106630.09, 187500.00, 187500.00, -187500.02, -187500.02, -187500.02, -187500.02, 0.000, 0.000, 0.000, 21:27:10.851, 1592537230851
82, 15923.78, -105138.83, 187500.00, 187500.00, -187500.02, -187500.02, -187500.02, -187500.02, 0.000, 0.000, 0.000, 21:27:10.866, 1592537230866
83, 15930.76, -105344.64, 187500.00, 187500.00, -187500.02, -187500.02, -187500.02, -187500.02, 0.000, 0.000, 0.000, 21:27:10.866, 1592537230866
84, 15927.07, -106513.59, 187500.00, 187500.00, -187500.02, -187500.02, -187500.02, -187500.02, 0.000, 0.000, 0.000, 21:27:10.866, 1592537230866
85, 15911.98, -106101.49, 187500.00, 187500.00, -187500.02, -187500.02, -187500.02, -187500.02, 0.000, 0.000, 0.000, 21:27:10.866, 1592537230866
86, 15904.79, -104547.87, 187500.00, 187500.00, -187500.02, -187500.02, -187500.02, -187500.02, 0.000, 0.000, 0.000, 21:27:10.881, 1592537230881
87, 15910.11, -104334.97, 187500.00, 187500.00, -187500.02, -187500.02, -187500.02, -187500.02, 0.012, -0.038, 0.978, 21:27:10.881, 1592537230881
88, 15910.60, -105571.13, 187500.00, 187500.00, -187500.02, -187500.02, -187500.02, -187500.02, 0.000, 0.000, 0.000, 21:27:10.881, 1592537230881
89, 15907.98, -105406.82, 187500.00, 187500.00, -187500.02, -187500.02, -187500.02, -187500.02, 0.000, 0.000, 0.000, 21:27:10.881, 1592537230881
90, 15911.83, -103941.51, 187500.00, 187500.00, -187500.02, -187500.02, -187500.02, -187500.02, 0.000, 0.000, 0.000, 21:27:10.896, 1592537230896
91, 15923.90, -103324.98, 187500.00, 187500.00, -187500.02, -187500.02, -187500.02, -187500.02, 0.000, 0.000, 0.000, 21:27:10.897, 1592537230897
92, 15901.50, -104570.66, 187500.00, 187500.00, -187500.02, -187500.02, -187500.02, -187500.02, 0.000, 0.000, 0.000, 21:27:10.897, 1592537230897
93, 15891.73, -104669.21, 187500.00, 187500.00, -187500.02, -187500.02, -187500.02, -187500.02, 0.000, 0.000, 0.000, 21:27:10.897, 1592537230897
94, 15900.49, -103372.43, 187500.00, 187500.00, -187500.02, -187500.02, -187500.02, -187500.02, 0.000, 0.000, 0.000, 21:27:10.910, 1592537230910
95, 15911.87, -102424.01, 187500.00, 187500.00, -187500.02, -187500.02, -187500.02, -187500.02, 0.000, 0.000, 0.000, 21:27:10.910, 1592537230910
96, 15926.35, -103524.42, 187500.00, 187500.00, -187500.02, -187500.02, -187500.02, -187500.02, 0.010, -0.040, 0.976, 21:27:10.910, 1592537230910
97, 15912.27, -103897.66, 187500.00, 187500.00, -187500.02, -187500.02, -187500.02, -187500.02, 0.000, 0.000, 0.000, 21:27:10.926, 1592537230926
98, 15884.24, -102786.82, 187500.00, 187500.00, -187500.02, -187500.02, -187500.02, -187500.02, 0.000, 0.000, 0.000, 21:27:10.926, 1592537230926
99, 15882.12, -101532.28, 187500.00, 187500.00, -187500.02, -187500.02, -187500.02, -187500.02, 0.000, 0.000, 0.000, 21:27:10.926, 1592537230926
100, 15889.38, -102390.16, 187500.00, 187500.00, -187500.02, -187500.02, -187500.02, -187500.02, 0.000, 0.000, 0.000, 21:27:10.926, 1592537230926
101, 15896.40, -103035.33, 187500.00, 187500.00, -187500.02, -187500.02, -187500.02, -187500.02, 0.000, 0.000, 0.000, 21:27:10.941, 1592537230941
102, 15891.75, -102152.14, 187500.00, 187500.00, -187500.02, -187500.02, -187500.02, -187500.02, 0.000, 0.000, 0.000, 21:27:10.941, 1592537230941
103, 15892.34, -100698.90, 187500.00, 187500.00, -187500.02, -187500.02, -187500.02, -187500.02, 0.000, 0.000, 0.000, 21:27:10.941, 1592537230941
104, 15913.50, -101187.04, 187500.00, 187500.00, -187500.02, -187500.02, -187500.02, -187500.02, 0.000, 0.000, 0.000, 21:27:10.941, 1592537230941
105, 15923.81, -102087.55, 187500.00, 187500.00, -187500.02, -187500.02, -187500.02, -187500.02, 0.000, 0.000, 0.000, 21:27:10.957, 1592537230957
106, 15905.95, -101402.26, 187500.00, 187500.00, -187500.02, -187500.02, -187500.02, -187500.02, 0.008, -0.044, 0.976, 21:27:10.957, 1592537230957
107, 15885.23, -99823.85, 187500.00, 187500.00, -187500.02, -187500.02, -187500.02, -187500.02, 0.000, 0.000, 0.000, 21:27:10.958, 1592537230958
108, 15907.40, -99915.29, 187500.00, 187500.00, -187500.02, -187500.02, -187500.02, -187500.02, 0.000, 0.000, 0.000, 21:27:10.958, 1592537230958
109, 15901.10, -101010.73, 187500.00, 187500.00, -187500.02, -187500.02, -187500.02, -187500.02, 0.000, 0.000, 0.000, 21:27:10.971, 1592537230971
110, 15886.21, -100562.15, 187500.00, 187500.00, -187500.02, -187500.02, -187500.02, -187500.02, 0.000, 0.000, 0.000, 21:27:10.972, 1592537230972
111, 15889.09, -99034.12, 187500.00, 187500.00, -187500.02, -187500.02, -187500.02, -187500.02, 0.000, 0.000, 0.000, 21:27:10.972, 1592537230972
112, 15902.17, -98767.93, 187500.00, 187500.00, -187500.02, -187500.02, -187500.02, -187500.02, 0.000, 0.000, 0.000, 21:27:10.973, 1592537230973
113, 15880.87, -99976.60, 187500.00, 187500.00, -187500.02, -187500.02, -187500.02, -187500.02, 0.000, 0.000, 0.000, 21:27:10.986, 1592537230986
114, 15867.12, -99855.07, 187500.00, 187500.00, -187500.02, -187500.02, -187500.02, -187500.02, 0.000, 0.000, 0.000, 21:27:10.986, 1592537230986
115, 15877.54, -98476.10, 187500.00, 187500.00, -187500.02, -187500.02, -187500.02, -187500.02, 0.000, 0.000, 0.000, 21:27:10.987, 1592537230987
116, 15886.79, -97867.04, 187500.00, 187500.00, -187500.02, -187500.02, -187500.02, -187500.02, 0.012, -0.042, 0.970, 21:27:11.003, 1592537231003
117, 15892.11, -99100.55, 187500.00, 187500.00, -187500.02, -187500.02, -187500.02, -187500.02, 0.000, 0.000, 0.000, 21:27:11.004, 1592537231004
118, 15903.33, -99295.25, 187500.00, 187500.00, -187500.02, -187500.02, -187500.02, -187500.02, 0.000, 0.000, 0.000, 21:27:11.004, 1592537231004
119, 15903.38, -98096.70, 187500.00, 187500.00, -187500.02, -187500.02, -187500.02, -187500.02, 0.000, 0.000, 0.000, 21:27:11.004, 1592537231004
120, 15894.17, -97202.62, 187500.00, 187500.00, -187500.02, -187500.02, -187500.02, -187500.02, 0.000, 0.000, 0.000, 21:27:11.016, 1592537231016
121, 15887.55, -98369.06, 187500.00, 187500.00, -187500.02, -187500.02, -187500.02, -187500.02, 0.000, 0.000, 0.000, 21:27:11.016, 1592537231016
122, 15873.07, -98873.03, 187500.00, 187500.00, -187500.02, -187500.02, -187500.02, -187500.02, 0.000, 0.000, 0.000, 21:27:11.016, 1592537231016
123, 15873.47, -97884.79, 187500.00, 187500.00, -187500.02, -187500.02, -187500.02, -187500.02, 0.000, 0.000, 0.000, 21:27:11.016, 1592537231016
124, 15897.32, -96705.16, 187500.00, 187500.00, -187500.02, -187500.02, -187500.02, -187500.02, 0.000, 0.000, 0.000, 21:27:11.032, 1592537231032
125, 15900.07, -97600.03, 187500.00, 187500.00, -187500.02, -187500.02, -187500.02, -187500.02, 0.000, 0.000, 0.000, 21:27:11.032, 1592537231032
126, 15877.52, -98374.63, 187500.00, 187500.00, -187500.02, -187500.02, -187500.02, -187500.02, 0.012, -0.038, 0.970, 21:27:11.032, 1592537231032
127, 15879.82, -97661.30, 187500.00, 187500.00, -187500.02, -187500.02, -187500.02, -187500.02, 0.000, 0.000, 0.000, 21:27:11.032, 1592537231032
128, 15870.77, -96377.19, 187500.00, 187500.00, -187500.02, -187500.02, -187500.02, -187500.02, 0.000, 0.000, 0.000, 21:27:11.045, 1592537231045
129, 15894.24, -96984.15, 187500.00, 187500.00, -187500.02, -187500.02, -187500.02, -187500.02, 0.000, 0.000, 0.000, 21:27:11.045, 1592537231045
130, 15880.09, -98074.69, 187500.00, 187500.00, -187500.02, -187500.02, -187500.02, -187500.02, 0.000, 0.000, 0.000, 21:27:11.045, 1592537231045
131, 15853.40, -97634.83, 187500.00, 187500.00, -187500.02, -187500.02, -187500.02, -187500.02, 0.000, 0.000, 0.000, 21:27:11.061, 1592537231061
132, 15854.16, -96298.95, 187500.00, 187500.00, -187500.02, -187500.02, -187500.02, -187500.02, 0.000, 0.000, 0.000, 21:27:11.061, 1592537231061
133, 15869.80, -96556.34, 187500.00, 187500.00, -187500.02, -187500.02, -187500.02, -187500.02, 0.000, 0.000, 0.000, 21:27:11.061, 1592537231061
134, 15868.35, -97879.31, 187500.00, 187500.00, -187500.02, -187500.02, -187500.02, -187500.02, 0.000, 0.000, 0.000, 21:27:11.061, 1592537231061
135, 15868.58, -97719.41, 187500.00, 187500.00, -187500.02, -187500.02, -187500.02, -187500.02, 0.000, 0.000, 0.000, 21:27:11.076, 1592537231076
136, 15878.10, -96447.15, 187500.00, 187500.00, -187500.02, -187500.02, -187500.02, -187500.02, 0.014, -0.046, 0.972, 21:27:11.076, 1592537231076
137, 15882.21, -96350.86, 187500.00, 187500.00, -187500.02, -187500.02, -187500.02, -187500.02, 0.000, 0.000, 0.000, 21:27:11.077, 1592537231077
138, 15889.59, -97798.49, 187500.00, 187500.00, -187500.02, -187500.02, -187500.02, -187500.02, 0.000, 0.000, 0.000, 21:27:11.077, 1592537231077
139, 15885.47, -97925.16, 187500.00, 187500.00, -187500.02, -187500.02, -187500.02, -187500.02, 0.000, 0.000, 0.000, 21:27:11.092, 1592537231092
140, 15878.14, -96808.91, 187500.00, 187500.00, -187500.02, -187500.02, -187500.02, -187500.02, 0.000, 0.000, 0.000, 21:27:11.092, 1592537231092
141, 15883.28, -96383.31, 187500.00, 187500.00, -187500.02, -187500.02, -187500.02, -187500.02, 0.000, 0.000, 0.000, 21:27:11.092, 1592537231092
142, 15887.26, -97839.75, 187500.00, 187500.00, -187500.02, -187500.02, -187500.02, -187500.02, 0.000, 0.000, 0.000, 21:27:11.092, 1592537231092
143, 15884.47, -98292.35, 187500.00, 187500.00, -187500.02, -187500.02, -187500.02, -187500.02, 0.000, 0.000, 0.000, 21:27:11.107, 1592537231107
144, 15877.63, -97354.83, 187500.00, 187500.00, -187500.02, -187500.02, -187500.02, -187500.02, 0.000, 0.000, 0.000, 21:27:11.108, 1592537231108
145, 15873.67, -96668.25, 187500.00, 187500.00, -187500.02, -187500.02, -187500.02, -187500.02, 0.000, 0.000, 0.000, 21:27:11.108, 1592537231108
146, 15874.19, -98033.54, 187500.00, 187500.00, -187500.02, -187500.02, -187500.02, -187500.02, 0.016, -0.042, 0.968, 21:27:11.122, 1592537231122
147, 15889.23, -98801.10, 187500.00, 187500.00, -187500.02, -187500.02, -187500.02, -187500.02, 0.000, 0.000, 0.000, 21:27:11.123, 1592537231123
148, 15890.53, -98079.61, 187500.00, 187500.00, -187500.02, -187500.02, -187500.02, -187500.02, 0.000, 0.000, 0.000, 21:27:11.124, 1592537231124
149, 15895.87, -97081.24, 187500.00, 187500.00, -187500.02, -187500.02, -187500.02, -187500.02, 0.000, 0.000, 0.000, 21:27:11.125, 1592537231125
150, 15899.51, -98164.66, 187500.00, 187500.00, -187500.02, -187500.02, -187500.02, -187500.02, 0.000, 0.000, 0.000, 21:27:11.137, 1592537231137
151, 15901.12, -99222.16, 187500.00, 187500.00, -187500.02, -187500.02, -187500.02, -187500.02, 0.000, 0.000, 0.000, 21:27:11.138, 1592537231138
152, 15913.32, -98706.17, 187500.00, 187500.00, -187500.02, -187500.02, -187500.02, -187500.02, 0.000, 0.000, 0.000, 21:27:11.139, 1592537231139
153, 15899.26, -97569.34, 187500.00, 187500.00, -187500.02, -187500.02, -187500.02, -187500.02, 0.000, 0.000, 0.000, 21:27:11.140, 1592537231140
154, 15895.44, -98303.23, 187500.00, 187500.00, -187500.02, -187500.02, -187500.02, -187500.02, 0.000, 0.000, 0.000, 21:27:11.151, 1592537231151
155, 15879.64, -99588.55, 187500.00, 187500.00, -187500.02, -187500.02, -187500.02, -187500.02, 0.000, 0.000, 0.000, 21:27:11.152, 1592537231152
156, 15869.00, -99302.41, 187500.00, 187500.00, -187500.02, -187500.02, -187500.02, -187500.02, 0.014, -0.042, 0.964, 21:27:11.152, 1592537231152
157, 15884.51, -98078.60, 187500.00, 187500.00, -187500.02, -187500.02, -187500.02, -187500.02, 0.000, 0.000, 0.000, 21:27:11.153, 1592537231153
158, 15873.07, -98394.86, 187500.00, 187500.00, -187500.02, -187500.02, -187500.02, -187500.02, 0.000, 0.000, 0.000, 21:27:11.166, 1592537231166
159, 15853.29, -99859.01, 187500.00, 187500.00, -187500.02, -187500.02, -187500.02, -187500.02, 0.000, 0.000, 0.000, 21:27:11.167, 1592537231167
160, 15848.19, -99819.00, 187500.00, 187500.00, -187500.02, -187500.02, -187500.02, -187500.02, 0.000, 0.000, 0.000, 21:27:11.167, 1592537231167
161, 15860.44, -98607.58, 187500.00, 187500.00, -187500.02, -187500.02, -187500.02, -187500.02, 0.000, 0.000, 0.000, 21:27:11.180, 1592537231180
162, 15871.66, -98508.09, 187500.00, 187500.00, -187500.02, -187500.02, -187500.02, -187500.02, 0.000, 0.000, 0.000, 21:27:11.180, 1592537231180
163, 15883.57, -100010.42, 187500.00, 187500.00, -187500.02, -187500.02, -187500.02, -187500.02, 0.000, 0.000, 0.000, 21:27:11.180, 1592537231180
164, 15880.44, -100197.30, 187500.00, 187500.00, -187500.02, -187500.02, -187500.02, -187500.02, 0.000, 0.000, 0.000, 21:27:11.181, 1592537231181
165, 15872.87, -99122.77, 187500.00, 187500.00, -187500.02, -187500.02, -187500.02, -187500.02, 0.000, 0.000, 0.000, 21:27:11.196, 1592537231196
166, 15875.50, -98678.03, 187500.00, 187500.00, -187500.02, -187500.02, -187500.02, -187500.02, 0.016, -0.042, 0.970, 21:27:11.197, 1592537231197
167, 15880.96, -100097.68, 187500.00, 187500.00, -187500.02, -187500.02, -187500.02, -187500.02, 0.000, 0.000, 0.000, 21:27:11.197, 1592537231197
168, 15863.79, -100511.66, 187500.00, 187500.00, -187500.02, -187500.02, -187500.02, -187500.02, 0.000, 0.000, 0.000, 21:27:11.197, 1592537231197
169, 15851.99, -99586.00, 187500.00, 187500.00, -187500.02, -187500.02, -187500.02, -187500.02, 0.000, 0.000, 0.000, 21:27:11.211, 1592537231211
170, 15874.90, -98824.05, 187500.00, 187500.00, -187500.02, -187500.02, -187500.02, -187500.02, 0.000, 0.000, 0.000, 21:27:11.211, 1592537231211
171, 15870.88, -100086.57, 187500.00, 187500.00, -187500.02, -187500.02, -187500.02, -187500.02, 0.000, 0.000, 0.000, 21:27:11.211, 1592537231211
172, 15863.84, -100812.42, 187500.00, 187500.00, -187500.02, -187500.02, -187500.02, -187500.02, 0.000, 0.000, 0.000, 21:27:11.211, 1592537231211
173, 15870.39, -100067.04, 187500.00, 187500.00, -187500.02, -187500.02, -187500.02, -187500.02, 0.000, 0.000, 0.000, 21:27:11.226, 1592537231226
174, 15877.85, -99026.52, 187500.00, 187500.00, -187500.02, -187500.02, -187500.02, -187500.02, 0.000, 0.000, 0.000, 21:27:11.226, 1592537231226
175, 15879.39, -99994.93, 187500.00, 187500.00, -187500.02, -187500.02, -187500.02, -187500.02, 0.012, -0.040, 0.976, 21:27:11.226, 1592537231226
176, 15881.76, -101013.92, 187500.00, 187500.00, -187500.02, -187500.02, -187500.02, -187500.02, 0.000, 0.000, 0.000, 21:27:11.241, 1592537231241
177, 15877.76, -100499.84, 187500.00, 187500.00, -187500.02, -187500.02, -187500.02, -187500.02, 0.000, 0.000, 0.000, 21:27:11.241, 1592537231241
178, 15881.92, -99306.88, 187500.00, 187500.00, -187500.02, -187500.02, -187500.02, -187500.02, 0.000, 0.000, 0.000, 21:27:11.242, 1592537231242
179, 15879.86, -99913.55, 187500.00, 187500.00, -187500.02, -187500.02, -187500.02, -187500.02, 0.000, 0.000, 0.000, 21:27:11.242, 1592537231242
180, 15880.98, -101158.47, 187500.00, 187500.00, -187500.02, -187500.02, -187500.02, -187500.02, 0.000, 0.000, 0.000, 21:27:11.257, 1592537231257
181, 15884.80, -100864.19, 187500.00, 187500.00, -187500.02, -187500.02, -187500.02, -187500.02, 0.000, 0.000, 0.000, 21:27:11.257, 1592537231257
182, 15883.73, -99589.49, 187500.00, 187500.00, -187500.02, -187500.02, -187500.02, -187500.02, 0.000, 0.000, 0.000, 21:27:11.258, 1592537231258
183, 15884.51, -99802.91, 187500.00, 187500.00, -187500.02, -187500.02, -187500.02, -187500.02, 0.000, 0.000, 0.000, 21:27:11.258, 1592537231258
184, 15897.75, -101161.38, 187500.00, 187500.00, -187500.02, -187500.02, -187500.02, -187500.02, 0.000, 0.000, 0.000, 21:27:11.272, 1592537231272
185, 15892.09, -101095.77, 187500.00, 187500.00, -187500.02, -187500.02, -187500.02, -187500.02, 0.010, -0.038, 0.974, 21:27:11.273, 1592537231273
186, 15889.92, -99869.38, 187500.00, 187500.00, -187500.02, -187500.02, -187500.02, -187500.02, 0.000, 0.000, 0.000, 21:27:11.274, 1592537231274
187, 15901.28, -99686.23, 187500.00, 187500.00, -187500.02, -187500.02, -187500.02, -187500.02, 0.000, 0.000, 0.000, 21:27:11.274, 1592537231274
188, 15903.56, -101113.92, 187500.00, 187500.00, -187500.02, -187500.02, -187500.02, -187500.02, 0.000, 0.000, 0.000, 21:27:11.286, 1592537231286
189, 15893.27, -101238.55, 187500.00, 187500.00, -187500.02, -187500.02, -187500.02, -187500.02, 0.000, 0.000, 0.000, 21:27:11.287, 1592537231287
190, 15884.69, -100099.67, 187500.00, 187500.00, -187500.02, -187500.02, -187500.02, -187500.02, 0.000, 0.000, 0.000, 21:27:11.287, 1592537231287
191, 15893.16, -99545.41, 187500.00, 187500.00, -187500.02, -187500.02, -187500.02, -187500.02, 0.000, 0.000, 0.000, 21:27:11.303, 1592537231303
192, 15896.92, -100900.09, 187500.00, 187500.00, -187500.02, -187500.02, -187500.02, -187500.02, 0.000, 0.000, 0.000, 21:27:11.303, 1592537231303
193, 15894.91, -101328.19, 187500.00, 187500.00, -187500.02, -187500.02, -187500.02, -187500.02, 0.000, 0.000, 0.000, 21:27:11.304, 1592537231304
194, 15898.73, -100346.95, 187500.00, 187500.00, -187500.02, -187500.02, -187500.02, -187500.02, 0.000, 0.000, 0.000, 21:27:11.304, 1592537231304
195, 15901.95, -99451.65, 187500.00, 187500.00, -187500.02, -187500.02, -187500.02, -187500.02, 0.010, -0.042, 0.976, 21:27:11.316, 1592537231316
196, 15908.94, -100566.40, 187500.00, 187500.00, -187500.02, -187500.02, -187500.02, -187500.02, 0.000, 0.000, 0.000, 21:27:11.316, 1592537231316
197, 15906.62, -101228.86, 187500.00, 187500.00, -187500.02, -187500.02, -187500.02, -187500.02, 0.000, 0.000, 0.000, 21:27:11.316, 1592537231316
198, 15904.81, -100424.82, 187500.00, 187500.00, -187500.02, -187500.02, -187500.02, -187500.02, 0.000, 0.000, 0.000, 21:27:11.316, 1592537231316
199, 15901.88, -99257.55, 187500.00, 187500.00, -187500.02, -187500.02, -187500.02, -187500.02, 0.000, 0.000, 0.000, 21:27:11.332, 1592537231332
200, 15908.83, -100076.42, 187500.00, 187500.00, -187500.02, -187500.02, -187500.02, -187500.02, 0.000, 0.000, 0.000, 21:27:11.332, 1592537231332
201, 15905.12, -101009.79, 187500.00, 187500.00, -187500.02, -187500.02, -187500.02, -187500.02, 0.000, 0.000, 0.000, 21:27:11.332, 1592537231332
202, 15899.09, -100399.07, 187500.00, 187500.00, -187500.02, -187500.02, -187500.02, -187500.02, 0.000, 0.000, 0.000, 21:27:11.332, 1592537231332
203, 15902.46, -99037.13, 187500.00, 187500.00, -187500.02, -187500.02, -187500.02, -187500.02, 0.000, 0.000, 0.000, 21:27:11.345, 1592537231345
204, 15904.96, -99448.54, 187500.00, 187500.00, -187500.02, -187500.02, -187500.02, -187500.02, 0.000, 0.000, 0.000, 21:27:11.345, 1592537231345
205, 15895.31, -100528.98, 187500.00, 187500.00, -187500.02, -187500.02, -187500.02, -187500.02, 0.014, -0.038, 0.972, 21:27:11.345, 1592537231345
206, 15882.37, -100084.65, 187500.00, 187500.00, -187500.02, -187500.02, -187500.02, -187500.02, 0.000, 0.000, 0.000, 21:27:11.361, 1592537231361
207, 15891.42, -98584.29, 187500.00, 187500.00, -187500.02, -187500.02, -187500.02, -187500.02, 0.000, 0.000, 0.000, 21:27:11.361, 1592537231361
208, 15903.13, -98491.38, 187500.00, 187500.00, -187500.02, -187500.02, -187500.02, -187500.02, 0.000, 0.000, 0.000, 21:27:11.361, 1592537231361
209, 15908.94, -99589.63, 187500.00, 187500.00, -187500.02, -187500.02, -187500.02, -187500.02, 0.000, 0.000, 0.000, 21:27:11.362, 1592537231362
210, 15894.37, -99238.26, 187500.00, 187500.00, -187500.02, -187500.02, -187500.02, -187500.02, 0.000, 0.000, 0.000, 21:27:11.379, 1592537231379
211, 15894.48, -97709.98, 187500.00, 187500.00, -187500.02, -187500.02, -187500.02, -187500.02, 0.000, 0.000, 0.000, 21:27:11.379, 1592537231379
212, 15886.30, -97165.87, 187500.00, 187500.00, -187500.02, -187500.02, -187500.02, -187500.02, 0.000, 0.000, 0.000, 21:27:11.379, 1592537231379
213, 15891.37, -98279.84, 187500.00, 187500.00, -187500.02, -187500.02, -187500.02, -187500.02, 0.000, 0.000, 0.000, 21:27:11.379, 1592537231379
0, 0.00, 0.00, 0.00, 0.00, 0.00, 0.00, 0.00, 0.00, 0.012, -0.042, 0.968, 21:27:11.407, 1592537231407
1, 15873.54, -137793.03, 187500.00, 187500.00, -187500.02, -187500.02, -187500.02, -187500.02, 0.000, 0.000, 0.000, 21:27:11.407, 1592537231407
2, 15875.10, -115862.81, 187500.00, 187500.00, -187500.02, -187500.02, -187500.02, -187500.02, 0.000, 0.000, 0.000, 21:27:11.408, 1592537231408
3, 15878.72, -93767.73, 187500.00, 187500.00, -187500.02, -187500.02, -187500.02, -187500.02, 0.000, 0.000, 0.000, 21:27:11.408, 1592537231408
4, 15890.99, -75201.41, 187500.00, 187500.00, -187500.02, -187500.02, -187500.02, -187500.02, 0.000, 0.000, 0.000, 21:27:11.420, 1592537231420
5, 15931.72, -77009.65, 187500.00, 187500.00, -187500.02, -187500.02, -187500.02, -187500.02, 0.000, 0.000, 0.000, 21:27:11.420, 1592537231420
6, 15925.86, -98257.51, 187500.00, 187500.00, -187500.02, -187500.02, -187500.02, -187500.02, 0.000, 0.000, 0.000, 21:27:11.421, 1592537231421
7, 15905.86, -121902.25, 187500.00, 187500.00, -187500.02, -187500.02, -187500.02, -187500.02, 0.014, -0.040, 0.972, 21:27:11.436, 1592537231436
8, 15905.75, -144863.34, 187500.00, 187500.00, -187500.02, -187500.02, -187500.02, -187500.02, 0.000, 0.000, 0.000, 21:27:11.437, 1592537231437
9, 15878.68, -144735.20, 187500.00, 187500.00, -187500.02, -187500.02, -187500.02, -187500.02, 0.000, 0.000, 0.000, 21:27:11.437, 1592537231437
10, 15859.72, -123053.70, 187500.00, 187500.00, -187500.02, -187500.02, -187500.02, -187500.02, 0.000, 0.000, 0.000, 21:27:11.437, 1592537231437
11, 15855.68, -100302.00, 187500.00, 187500.00, -187500.02, -187500.02, -187500.02, -187500.02, 0.000, 0.000, 0.000, 21:27:11.450, 1592537231450
12, 15873.74, -81729.40, 187500.00, 187500.00, -187500.02, -187500.02, -187500.02, -187500.02, 0.000, 0.000, 0.000, 21:27:11.450, 1592537231450
13, 15892.72, -84096.38, 187500.00, 187500.00, -187500.02, -187500.02, -187500.02, -187500.02, 0.000, 0.000, 0.000, 21:27:11.450, 1592537231450
14, 15891.04, -105680.14, 187500.00, 187500.00, -187500.02, -187500.02, -187500.02, -187500.02, 0.000, 0.000, 0.000, 21:27:11.451, 1592537231451
15, 15883.39, -128723.02, 187500.00, 187500.00, -187500.02, -187500.02, -187500.02, -187500.02, 0.000, 0.000, 0.000, 21:27:11.465, 1592537231465
16, 15887.19, -151366.75, 187500.00, 187500.00, -187500.02, -187500.02, -187500.02, -187500.02, 0.000, 0.000, 0.000, 21:27:11.466, 1592537231466
17, 15855.50, -151840.33, 187500.00, 187500.00, -187500.02, -187500.02, -187500.02, -187500.02, 0.016, -0.046, 0.970, 21:27:11.466, 1592537231466
18, 15858.76, -130661.37, 187500.00, 187500.00, -187500.02, -187500.02, -187500.02, -187500.02, 0.000, 0.000, 0.000, 21:27:11.466, 1592537231466
19, 15866.81, -107518.97, 187500.00, 187500.00, -187500.02, -187500.02, -187500.02, -187500.02, 0.000, 0.000, 0.000, 21:27:11.479, 1592537231479
20, 15857.80, -88464.16, 187500.00, 187500.00, -187500.02, -187500.02, -187500.02, -187500.02, 0.000, 0.000, 0.000, 21:27:11.480, 1592537231480
21, 15886.97, -91448.41, 187500.00, 187500.00, -187500.02, -187500.02, -187500.02, -187500.02, 0.000, 0.000, 0.000, 21:27:11.480, 1592537231480
22, 15903.71, -113601.87, 187500.00, 187500.00, -187500.02, -187500.02, -187500.02, -187500.02, 0.000, 0.000, 0.000, 21:27:11.480, 1592537231480
23, 15909.95, -136335.38, 187500.00, 187500.00, -187500.02, -187500.02, -187500.02, -187500.02, 0.000, 0.000, 0.000, 21:27:11.495, 1592537231495
24, 15898.64, -158307.20, 187500.00, 187500.00, -187500.02, -187500.02, -187500.02, -187500.02, 0.000, 0.000, 0.000, 21:27:11.495, 1592537231495
25, 15869.09, -159254.66, 187500.00, 187500.00, -187500.02, -187500.02, -187500.02, -187500.02, 0.000, 0.000, 0.000, 21:27:11.495, 1592537231495
26, 15852.21, -138553.36, 187500.00, 187500.00, -187500.02, -187500.02, -187500.02, -187500.02, 0.000, 0.000, 0.000, 21:27:11.510, 1592537231510
27, 15848.26, -115312.16, 187500.00, 187500.00, -187500.02, -187500.02, -187500.02, -187500.02, 0.010, -0.044, 0.974, 21:27:11.511, 1592537231511
28, 15872.71, -95507.52, 187500.00, 187500.00, -187500.02, -187500.02, -187500.02, -187500.02, 0.000, 0.000, 0.000, 21:27:11.511, 1592537231511
29, 15912.18, -98689.16, 187500.00, 187500.00, -187500.02, -187500.02, -187500.02, -187500.02, 0.000, 0.000, 0.000, 21:27:11.511, 1592537231511
30, 15918.46, -121160.20, 187500.00, 187500.00, -187500.02, -187500.02, -187500.02, -187500.02, 0.000, 0.000, 0.000, 21:27:11.528, 1592537231528
31, 15921.01, -143925.92, 187500.00, 187500.00, -187500.02, -187500.02, -187500.02, -187500.02, 0.000, 0.000, 0.000, 21:27:11.529, 1592537231529
32, 15891.40, -165158.13, 187500.00, 187500.00, -187500.02, -187500.02, -187500.02, -187500.02, 0.000, 0.000, 0.000, 21:27:11.529, 1592537231529
33, 15856.04, -166259.73, 187500.00, 187500.00, -187500.02, -187500.02, -187500.02, -187500.02, 0.000, 0.000, 0.000, 21:27:11.530, 1592537231530
34, 15851.50, -146063.59, 187500.00, 187500.00, -187500.02, -187500.02, -187500.02, -187500.02, 0.000, 0.000, 0.000, 21:27:11.542, 1592537231542
35, 15871.97, -123152.95, 187500.00, 187500.00, -187500.02, -187500.02, -187500.02, -187500.02, 0.000, 0.000, 0.000, 21:27:11.543, 1592537231543
36, 15878.19, -102758.86, 187500.00, 187500.00, -187500.02, -187500.02, -187500.02, -187500.02, 0.000, 0.000, 0.000, 21:27:11.544, 1592537231544
37, 15880.94, -105958.15, 187500.00, 187500.00, -187500.02, -187500.02, -187500.02, -187500.02, 0.014, -0.046, 0.976, 21:27:11.545, 1592537231545
38, 15886.28, -128999.34, 187500.00, 187500.00, -187500.02, -187500.02, -187500.02, -187500.02, 0.000, 0.000, 0.000, 21:27:11.555, 1592537231555
39, 15898.33, -152135.16, 187500.00, 187500.00, -187500.02, -187500.02, -187500.02, -187500.02, 0.000, 0.000, 0.000, 21:27:11.555, 1592537231555
40, 15891.29, -172834.02, 187500.00, 187500.00, -187500.02, -187500.02, -187500.02, -187500.02, 0.000, 0.000, 0.000, 21:27:11.555, 1592537231555
41, 15874.83, -173731.41, 187500.00, 187500.00, -187500.02, -187500.02, -187500.02, -187500.02, 0.000, 0.000, 0.000, 21:27:11.571, 1592537231571
42, 15859.43, -154166.91, 187500.00, 187500.00, -187500.02, -187500.02, -187500.02, -187500.02, 0.000, 0.000, 0.000, 21:27:11.572, 1592537231572
43, 15860.15, -131687.00, 187500.00, 187500.00, -187500.02, -187500.02, -187500.02, -187500.02, 0.000, 0.000, 0.000, 21:27:11.572, 1592537231572
44, 15863.26, -110925.22, 187500.00, 187500.00, -187500.02, -187500.02, -187500.02, -187500.02, 0.000, 0.000, 0.000, 21:27:11.572, 1592537231572
45, 15889.36, -113679.00, 187500.00, 187500.00, -187500.02, -187500.02, -187500.02, -187500.02, 0.000, 0.000, 0.000, 21:27:11.587, 1592537231587
46, 15895.93, -137250.59, 187500.00, 187500.00, -187500.02, -187500.02, -187500.02, -187500.02, 0.000, 0.000, 0.000, 21:27:11.588, 1592537231588
47, 15899.60, -160787.06, 187500.00, 187500.00, -187500.02, -187500.02, -187500.02, -187500.02, 0.012, -0.042, 0.976, 21:27:11.589, 1592537231589
48, 15898.66, -181196.94, 187500.00, 187500.00, -187500.02, -187500.02, -187500.02, -187500.02, 0.000, 0.000, 0.000, 21:27:11.590, 1592537231590
49, 15879.37, -181446.67, 187500.00, 187500.00, -187500.02, -187500.02, -187500.02, -187500.02, 0.000, 0.000, 0.000, 21:27:11.603, 1592537231603
50, 15889.72, -162423.75, 187500.00, 187500.00, -187500.02, -187500.02, -187500.02, -187500.02, 0.000, 0.000, 0.000, 21:27:11.604, 1592537231604
51, 15870.25, -140455.86, 187500.00, 187500.00, -187500.02, -187500.02, -187500.02, -187500.02, 0.000, 0.000, 0.000, 21:27:11.605, 1592537231605
52, 15871.68, -119697.77, 187500.00, 187500.00, -187500.02, -187500.02, -187500.02, -187500.02, 0.000, 0.000, 0.000, 21:27:11.605, 1592537231605
53, 15910.28, -121815.23, 187500.00, 187500.00, -187500.02, -187500.02, -187500.02, -187500.02, 0.000, 0.000, 0.000, 21:27:11.617, 1592537231617
54, 15921.50, -145790.30, 187500.00, 187500.00, -187500.02, -187500.02, -187500.02, -187500.02, 0.000, 0.000, 0.000, 21:27:11.618, 1592537231618
55, 15889.88, -169791.72, 187500.00, 187500.00, -187500.02, -187500.02, -187500.02, -187500.02, 0.000, 0.000, 0.000, 21:27:11.619, 1592537231619
56, 15857.62, -187500.02, 187500.00, 187500.00, -187500.02, -187500.02, -187500.02, -187500.02, 0.000, 0.000, 0.000, 21:27:11.633, 1592537231633
57, 15849.02, -187500.02, 187500.00, 187500.00, -187500.02, -187500.02, -187500.02, -187500.02, 0.012, -0.038, 0.968, 21:27:11.634, 1592537231634
58, 15840.86, -171405.55, 187500.00, 187500.00, -187500.02, -187500.02, -187500.02, -187500.02, 0.000, 0.000, 0.000, 21:27:11.635, 1592537231635
59, 15841.19, -152061.91, 187500.00, 187500.00, -187500.02, -187500.02, -187500.02, -187500.02, 0.000, 0.000, 0.000, 21:27:11.635, 1592537231635
60, 15848.57, -132220.20, 187500.00, 187500.00, -187500.02, -187500.02, -187500.02, -187500.02, 0.000, 0.000, 0.000, 21:27:11.646, 1592537231646
61, 15842.56, -133789.42, 187500.00, 187500.00, -187500.02, -187500.02, -187500.02, -187500.02, 0.000, 0.000, 0.000, 21:27:11.647, 1592537231647
62, 15857.20, -157671.92, 187500.00, 187500.00, -187500.02, -187500.02, -187500.02, -187500.02, 0.000, 0.000, 0.000, 21:27:11.648, 1592537231648
63, 15851.16, -181885.84, 187500.00, 187500.00, -187500.02, -187500.02, -187500.02, -187500.02, 0.000, 0.000, 0.000, 21:27:11.650, 1592537231650
64, 15845.35, -187500.02, 187500.00, 187500.00, -187500.02, -187500.02, -187500.02, -187500.02, 0.000, 0.000, 0.000, 21:27:11.660, 1592537231660
65, 15845.67, -187500.02, 187500.00, 187500.00, -187500.02, -187500.02, -187500.02, -187500.02, 0.000, 0.000, 0.000, 21:27:11.661, 1592537231661
66, 15840.73, -183071.94, 187500.00, 187500.00, -187500.02, -187500.02, -187500.02, -187500.02, 0.000, 0.000, 0.000, 21:27:11.661, 1592537231661
67, 15839.74, -162472.09, 187500.00, 187500.00, -187500.02, -187500.02, -187500.02, -187500.02, 0.010, -0.040, 0.972, 21:27:11.662, 1592537231662
68, 15841.17, -142745.88, 187500.00, 187500.00, -187500.02, -187500.02, -187500.02, -187500.02, 0.000, 0.000, 0.000, 21:27:11.675, 1592537231675
69, 15869.02, -144198.86, 187500.00, 187500.00, -187500.02, -187500.02, -187500.02, -187500.02, 0.000, 0.000, 0.000, 21:27:11.675, 1592537231675
70, 15877.58, -167705.77, 187500.00, 187500.00, -187500.02, -187500.02, -187500.02, -187500.02, 0.000, 0.000, 0.000, 21:27:11.675, 1592537231675
71, 15874.79, -187500.02, 187500.00, 187500.00, -187500.02, -187500.02, -187500.02, -187500.02, 0.000, 0.000, 0.000, 21:27:11.689, 1592537231689
72, 15867.03, -187500.02, 187500.00, 187500.00, -187500.02, -187500.02, -187500.02, -187500.02, 0.000, 0.000, 0.000, 21:27:11.690, 1592537231690
73, 15858.74, -187500.02, 187500.00, 187500.00, -187500.02, -187500.02, -187500.02, -187500.02, 0.000, 0.000, 0.000, 21:27:11.690, 1592537231690
74, 15843.90, -187500.02, 187500.00, 187500.00, -187500.02, -187500.02, -187500.02, -187500.02, 0.000, 0.000, 0.000, 21:27:11.690, 1592537231690
75, 15844.79, -171775.45, 187500.00, 187500.00, -187500.02, -187500.02, -187500.02, -187500.02, 0.000, 0.000, 0.000, 21:27:11.706, 1592537231706
76, 15844.82, -152088.33, 187500.00, 187500.00, -187500.02, -187500.02, -187500.02, -187500.02, 0.014, -0.040, 0.970, 21:27:11.706, 1592537231706
77, 15876.15, -153136.69, 187500.00, 187500.00, -187500.02, -187500.02, -187500.02, -187500.02, 0.000, 0.000, 0.000, 21:27:11.706, 1592537231706
78, 15897.88, -175794.63, 187500.00, 187500.00, -187500.02, -187500.02, -187500.02, -187500.02, 0.000, 0.000, 0.000, 21:27:11.706, 1592537231706
79, 15890.66, -187500.02, 187500.00, 187500.00, -187500.02, -187500.02, -187500.02, -187500.02, 0.000, 0.000, 0.000, 21:27:11.720, 1592537231720
80, 15864.44, -187500.02, 187500.00, 187500.00, -187500.02, -187500.02, -187500.02, -187500.02, 0.000, 0.000, 0.000, 21:27:11.720, 1592537231720
81, 15852.84, -187500.02, 187500.00, 187500.00, -187500.02, -187500.02, -187500.02, -187500.02, 0.000, 0.000, 0.000, 21:27:11.720, 1592537231720
82, 15852.01, -187500.02, 187500.00, 187500.00, -187500.02, -187500.02, -187500.02, -187500.02, 0.000, 0.000, 0.000, 21:27:11.720, 1592537231720
83, 15843.21, -179838.98, 187500.00, 187500.00, -187500.02, -187500.02, -187500.02, -187500.02, 0.000, 0.000, 0.000, 21:27:11.735, 1592537231735
84, 15843.74, -160298.41, 187500.00, 187500.00, -187500.02, -187500.02, -187500.02, -187500.02, 0.000, 0.000, 0.000, 21:27:11.736, 1592537231736
85, 15859.95, -160861.16, 187500.00, 187500.00, -187500.02, -187500.02, -187500.02, -187500.02, 0.000, 0.000, 0.000, 21:27:11.736, 1592537231736
86, 15864.58, -182052.41, 187500.00, 187500.00, -187500.02, -187500.02, -187500.02, -187500.02, 0.012, -0.050, 0.970, 21:27:11.750, 1592537231750
87, 15859.34, -187500.02, 187500.00, 187500.00, -187500.02, -187500.02, -187500.02, -187500.02, 0.000, 0.000, 0.000, 21:27:11.750, 1592537231750
88, 15864.51, -187500.02, 187500.00, 187500.00, -187500.02, -187500.02, -187500.02, -187500.02, 0.000, 0.000, 0.000, 21:27:11.751, 1592537231751
89, 15864.33, -187500.02, 187500.00, 187500.00, -187500.02, -187500.02, -187500.02, -187500.02, 0.000, 0.000, 0.000, 21:27:11.751, 1592537231751
90, 15849.62, -187500.02, 187500.00, 187500.00, -187500.02, -187500.02, -187500.02, -187500.02, 0.000, 0.000, 0.000, 21:27:11.767, 1592537231767
91, 15856.24, -181836.02, 187500.00, 187500.00, -187500.02, -187500.02, -187500.02, -187500.02, 0.000, 0.000, 0.000, 21:27:11.767, 1592537231767
92, 15874.19, -167893.31, 187500.00, 187500.00, -187500.02, -187500.02, -187500.02, -187500.02, 0.000, 0.000, 0.000, 21:27:11.767, 1592537231767
93, 15898.08, -168801.53, 187500.00, 187500.00, -187500.02, -187500.02, -187500.02, -187500.02, 0.000, 0.000, 0.000, 21:27:11.767, 1592537231767
94, 15900.16, -183703.48, 187500.00, 187500.00, -187500.02, -187500.02, -187500.02, -187500.02, 0.000, 0.000, 0.000, 21:27:11.783, 1592537231783
95, 15904.00, -187500.02, 187500.00, 187500.00, -187500.02, -187500.02, -187500.02, -187500.02, 0.000, 0.000, 0.000, 21:27:11.784, 1592537231784
96, 15919.16, -187500.02, 187500.00, 187500.00, -187500.02, -187500.02, -187500.02, -187500.02, 0.014, -0.044, 0.974, 21:27:11.784, 1592537231784
97, 15901.01, -187500.02, 187500.00, 187500.00, -187500.02, -187500.02, -187500.02, -187500.02, 0.000, 0.000, 0.000, 21:27:11.784, 1592537231784
98, 15871.93, -187500.02, 187500.00, 187500.00, -187500.02, -187500.02, -187500.02, -187500.02, 0.000, 0.000, 0.000, 21:27:11.797, 1592537231797
99, 15877.32, -180707.41, 187500.00, 187500.00, -187500.02, -187500.02, -187500.02, -187500.02, 0.000, 0.000, 0.000, 21:27:11.797, 1592537231797
100, 15850.34, -166497.83, 187500.00, 187500.00, -187500.02, -187500.02, -187500.02, -187500.02, 0.000, 0.000, 0.000, 21:27:11.797, 1592537231797
101, 15841.40, -169732.92, 187500.00, 187500.00, -187500.02, -187500.02, -187500.02, -187500.02, 0.000, 0.000, 0.000, 21:27:11.811, 1592537231811
102, 15880.27, -184018.80, 187500.00, 187500.00, -187500.02, -187500.02, -187500.02, -187500.02, 0.000, 0.000, 0.000, 21:27:11.812, 1592537231812
103, 15893.30, -187500.02, 187500.00, 187500.00, -187500.02, -187500.02, -187500.02, -187500.02, 0.000, 0.000, 0.000, 21:27:11.812, 1592537231812
104, 15839.09, -187500.02, 187500.00, 187500.00, -187500.02, -187500.02, -187500.02, -187500.02, 0.000, 0.000, 0.000, 21:27:11.814, 1592537231814
105, 15836.32, -187500.02, 187500.00, 187500.00, -187500.02, -187500.02, -187500.02, -187500.02, 0.000, 0.000, 0.000, 21:27:11.826, 1592537231826
106, 15855.34, -187500.02, 187500.00, 187500.00, -187500.02, -187500.02, -187500.02, -187500.02, 0.014, -0.046, 0.974, 21:27:11.826, 1592537231826
107, 15886.14, -162290.22, 187500.00, 187500.00, -187500.02, -187500.02, -187500.02, -187500.02, 0.000, 0.000, 0.000, 21:27:11.826, 1592537231826
108, 15891.67, -141850.11, 187500.00, 187500.00, -187500.02, -187500.02, -187500.02, -187500.02, 0.000, 0.000, 0.000, 21:27:11.826, 1592537231826
109, 15870.16, -143877.19, 187500.00, 187500.00, -187500.02, -187500.02, -187500.02, -187500.02, 0.000, 0.000, 0.000, 21:27:11.841, 1592537231841
110, 15870.14, -157206.20, 187500.00, 187500.00, -187500.02, -187500.02, -187500.02, -187500.02, 0.000, 0.000, 0.000, 21:27:11.842, 1592537231842
111, 15885.81, -168628.66, 187500.00, 187500.00, -187500.02, -187500.02, -187500.02, -187500.02, 0.000, 0.000, 0.000, 21:27:11.842, 1592537231842
112, 15878.59, -186934.00, 187500.00, 187500.00, -187500.02, -187500.02, -187500.02, -187500.02, 0.000, 0.000, 0.000, 21:27:11.843, 1592537231843
113, 15854.11, -186917.08, 187500.00, 187500.00, -187500.02, -187500.02, -187500.02, -187500.02, 0.000, 0.000, 0.000, 21:27:11.854, 1592537231854
114, 15846.94, -157997.33, 187500.00, 187500.00, -187500.02, -187500.02, -187500.02, -187500.02, 0.000, 0.000, 0.000, 21:27:11.855, 1592537231855
115, 15861.45, -122267.86, 187500.00, 187500.00, -187500.02, -187500.02, -187500.02, -187500.02, 0.000, 0.000, 0.000, 21:27:11.855, 1592537231855
116, 15873.76, -97503.83, 187500.00, 187500.00, -187500.02, -187500.02, -187500.02, -187500.02, 0.020, -0.046, 0.974, 21:27:11.872, 1592537231872
117, 15900.25, -100993.54, 187500.00, 187500.00, -187500.02, -187500.02, -187500.02, -187500.02, 0.000, 0.000, 0.000, 21:27:11.872, 1592537231872
118, 15901.46, -117795.77, 187500.00, 187500.00, -187500.02, -187500.02, -187500.02, -187500.02, 0.000, 0.000, 0.000, 21:27:11.872, 1592537231872
119, 15891.29, -128555.90, 187500.00, 187500.00, -187500.02, -187500.02, -187500.02, -187500.02, 0.000, 0.000, 0.000, 21:27:11.872, 1592537231872
120, 15899.78, -144163.77, 187500.00, 187500.00, -187500.02, -187500.02, -187500.02, -187500.02, 0.000, 0.000, 0.000, 21:27:11.885, 1592537231885
121, 15889.36, -146901.19, 187500.00, 187500.00, -187500.02, -187500.02, -187500.02, -187500.02, 0.000, 0.000, 0.000, 21:27:11.885, 1592537231885
122, 15887.64, -123801.55, 187500.00, 187500.00, -187500.02, -187500.02, -187500.02, -187500.02, 0.000, 0.000, 0.000, 21:27:11.885, 1592537231885
123, 15899.09, -89614.31, 187500.00, 187500.00, -187500.02, -187500.02, -187500.02, -187500.02, 0.000, 0.000, 0.000, 21:27:11.886, 1592537231886
124, 15896.38, -62430.12, 187500.00, 187500.00, -187500.02, -187500.02, -187500.02, -187500.02, 0.000, 0.000, 0.000, 21:27:11.902, 1592537231902
125, 15881.47, -67770.69, 187500.00, 187500.00, -187500.02, -187500.02, -187500.02, -187500.02, 0.000, 0.000, 0.000, 21:27:11.902, 1592537231902
126, 15890.97, -90203.10, 187500.00, 187500.00, -187500.02, -187500.02, -187500.02, -187500.02, 0.016, -0.042, 0.976, 21:27:11.902, 1592537231902
127, 15899.94, -103480.13, 187500.00, 187500.00, -187500.02, -187500.02, -187500.02, -187500.02, 0.000, 0.000, 0.000, 21:27:11.902, 1592537231902
128, 15905.19, -116621.99, 187500.00, 187500.00, -187500.02, -187500.02, -187500.02, -187500.02, 0.000, 0.000, 0.000, 21:27:11.915, 1592537231915
129, 15877.81, -119864.38, 187500.00, 187500.00, -187500.02, -187500.02, -187500.02, -187500.02, 0.000, 0.000, 0.000, 21:27:11.915, 1592537231915
130, 15852.04, -101808.37, 187500.00, 187500.00, -187500.02, -187500.02, -187500.02, -187500.02, 0.000, 0.000, 0.000, 21:27:11.916, 1592537231916
131, 15854.34, -70924.02, 187500.00, 187500.00, -187500.02, -187500.02, -187500.02, -187500.02, 0.000, 0.000, 0.000, 21:27:11.932, 1592537231932
132, 15867.50, -41486.18, 187500.00, 187500.00, -187500.02, -187500.02, -187500.02, -187500.02, 0.000, 0.000, 0.000, 21:27:11.934, 1592537231934
133, 15908.27, -46411.65, 187500.00, 187500.00, -187500.02, -187500.02, -187500.02, -187500.02, 0.000, 0.000, 0.000, 21:27:11.935, 1592537231935
134, 15899.31, -74071.91, 187500.00, 187500.00, -187500.02, -187500.02, -187500.02, -187500.02, 0.000, 0.000, 0.000, 21:27:11.935, 1592537231935
135, 15890.97, -91850.67, 187500.00, 187500.00, -187500.02, -187500.02, -187500.02, -187500.02, 0.000, 0.000, 0.000, 21:27:11.947, 1592537231947
136, 15903.11, -103266.04, 187500.00, 187500.00, -187500.02, -187500.02, -187500.02, -187500.02, 0.010, -0.044, 0.974, 21:27:11.947, 1592537231947
137, 15873.54, -104539.71, 187500.00, 187500.00, -187500.02, -187500.02, -187500.02, -187500.02, 0.000, 0.000, 0.000, 21:27:11.947, 1592537231947
138, 15838.98, -90497.77, 187500.00, 187500.00, -187500.02, -187500.02, -187500.02, -187500.02, 0.000, 0.000, 0.000, 21:27:11.948, 1592537231948
139, 15856.57, -64406.26, 187500.00, 187500.00, -187500.02, -187500.02, -187500.02, -187500.02, 0.000, 0.000, 0.000, 21:27:11.961, 1592537231961
140, 15881.43, -33430.39, 187500.00, 187500.00, -187500.02, -187500.02, -187500.02, -187500.02, 0.000, 0.000, 0.000, 21:27:11.962, 1592537231962
141, 15924.12, -34676.07, 187500.00, 187500.00, -187500.02, -187500.02, -187500.02, -187500.02, 0.000, 0.000, 0.000, 21:27:11.962, 1592537231962
142, 15920.79, -64620.50, 187500.00, 187500.00, -187500.02, -187500.02, -187500.02, -187500.02, 0.000, 0.000, 0.000, 21:27:11.963, 1592537231963
143, 15884.78, -86843.95, 187500.00, 187500.00, -187500.02, -187500.02, -187500.02, -187500.02, 0.000, 0.000, 0.000, 21:27:11.976, 1592537231976
144, 15889.36, -97085.54, 187500.00, 187500.00, -187500.02, -187500.02, -187500.02, -187500.02, 0.000, 0.000, 0.000, 21:27:11.977, 1592537231977
145, 15886.88, -93434.55, 187500.00, 187500.00, -187500.02, -187500.02, -187500.02, -187500.02, 0.000, 0.000, 0.000, 21:27:11.978, 1592537231978
146, 15860.35, -79908.58, 187500.00, 187500.00, -187500.02, -187500.02, -187500.02, -187500.02, 0.014, -0.040, 0.972, 21:27:11.978, 1592537231978
147, 15828.45, -57926.58, 187500.00, 187500.00, -187500.02, -187500.02, -187500.02, -187500.02, 0.000, 0.000, 0.000, 21:27:11.990, 1592537231990
148, 15830.38, -26720.53, 187500.00, 187500.00, -187500.02, -187500.02, -187500.02, -187500.02, 0.000, 0.000, 0.000, 21:27:11.990, 1592537231990
149, 15874.12, -22831.84, 187500.00, 187500.00, -187500.02, -187500.02, -187500.02, -187500.02, 0.000, 0.000, 0.000, 21:27:11.990, 1592537231990
150, 15914.53, -52293.63, 187500.00, 187500.00, -187500.02, -187500.02, -187500.02, -187500.02, 0.000, 0.000, 0.000, 21:27:12.006, 1592537232006
151, 15901.05, -79042.43, 187500.00, 187500.00, -187500.02, -187500.02, -187500.02, -187500.02, 0.000, 0.000, 0.000, 21:27:12.006, 1592537232006
152, 15887.19, -90741.66, 187500.00, 187500.00, -187500.02, -187500.02, -187500.02, -187500.02, 0.000, 0.000, 0.000, 21:27:12.006, 1592537232006
153, 15855.01, -82487.79, 187500.00, 187500.00, -187500.02, -187500.02, -187500.02, -187500.02, 0.000, 0.000, 0.000, 21:27:12.006, 1592537232006
154, 15822.71, -67642.84, 187500.00, 187500.00, -187500.02, -187500.02, -187500.02, -187500.02, 0.000, 0.000, 0.000, 21:27:12.022, 1592537232022
155, 15830.67, -50433.96, 187500.00, 187500.00, -187500.02, -187500.02, -187500.02, -187500.02, 0.000, 0.000, 0.000, 21:27:12.022, 1592537232022
156, 15860.48, -22347.27, 187500.00, 187500.00, -187500.02, -187500.02, -187500.02, -187500.02, 0.014, -0.040, 0.968, 21:27:12.022, 1592537232022
157, 15906.15, -14809.39, 187500.00, 187500.00, -187500.02, -187500.02, -187500.02, -187500.02, 0.000, 0.000, 0.000, 21:27:12.022, 1592537232022
158, 15898.91, -41973.80, 187500.00, 187500.00, -187500.02, -187500.02, -187500.02, -187500.02, 0.000, 0.000, 0.000, 21:27:12.037, 1592537232037
159, 15879.33, -73088.59, 187500.00, 187500.00, -187500.02, -187500.02, -187500.02, -187500.02, 0.000, 0.000, 0.000, 21:27:12.037, 1592537232037
160, 15858.81, -88977.51, 187500.00, 187500.00, -187500.02, -187500.02, -187500.02, -187500.02, 0.000, 0.000, 0.000, 21:27:12.037, 1592537232037
161, 15856.95, -78042.03, 187500.00, 187500.00, -187500.02, -187500.02, -187500.02, -187500.02, 0.000, 0.000, 0.000, 21:27:12.037, 1592537232037
162, 15873.58, -59846.68, 187500.00, 187500.00, -187500.02, -187500.02, -187500.02, -187500.02, 0.000, 0.000, 0.000, 21:27:12.051, 1592537232051
163, 15873.74, -46121.59, 187500.00, 187500.00, -187500.02, -187500.02, -187500.02, -187500.02, 0.000, 0.000, 0.000, 21:27:12.052, 1592537232052
164, 15874.97, -22889.53, 187500.00, 187500.00, -187500.02, -187500.02, -187500.02, -187500.02, 0.000, 0.000, 0.000, 21:27:12.053, 1592537232053
165, 15907.49, -13580.12, 187500.00, 187500.00, -187500.02, -187500.02, -187500.02, -187500.02, 0.010, -0.040, 0.970, 21:27:12.067, 1592537232067
166, 15925.37, -36424.42, 187500.00, 187500.00, -187500.02, -187500.02, -187500.02, -187500.02, 0.000, 0.000, 0.000, 21:27:12.068, 1592537232068
167, 15885.09, -69861.58, 187500.00, 187500.00, -187500.02, -187500.02, -187500.02, -187500.02, 0.000, 0.000, 0.000, 21:27:12.068, 1592537232068
168, 15858.96, -90941.63, 187500.00, 187500.00, -187500.02, -187500.02, -187500.02, -187500.02, 0.000, 0.000, 0.000, 21:27:12.068, 1592537232068
169, 15850.07, -79327.77, 187500.00, 187500.00, -187500.02, -187500.02, -187500.02, -187500.02, 0.000, 0.000, 0.000, 21:27:12.081, 1592537232081
170, 15859.72, -56067.70, 187500.00, 187500.00, -187500.02, -187500.02, -187500.02, -187500.02, 0.000, 0.000, 0.000, 21:27:12.082, 1592537232082
171, 15837.31, -43175.84, 187500.00, 187500.00, -187500.02, -187500.02, -187500.02, -187500.02, 0.000, 0.000, 0.000, 21:27:12.083, 1592537232083
172, 15839.76, -25117.59, 187500.00, 187500.00, -187500.02, -187500.02, -187500.02, -187500.02, 0.000, 0.000, 0.000, 21:27:12.084, 1592537232084
173, 15901.66, -16297.26, 187500.00, 187500.00, -187500.02, -187500.02, -187500.02, -187500.02, 0.000, 0.000, 0.000, 21:27:12.098, 1592537232098
174, 15924.30, -33799.05, 187500.00, 187500.00, -187500.02, -187500.02, -187500.02, -187500.02, 0.000, 0.000, 0.000, 21:27:12.099, 1592537232099
175, 15918.60, -66596.44, 187500.00, 187500.00, -187500.02, -187500.02, -187500.02, -187500.02, 0.012, -0.042, 0.972, 21:27:12.099, 1592537232099
176, 15942.43, -92748.63, 187500.00, 187500.00, -187500.02, -187500.02, -187500.02, -187500.02, 0.000, 0.000, 0.000, 21:27:12.100, 1592537232100
177, 15922.87, -83057.07, 187500.00, 187500.00, -187500.02, -187500.02, -187500.02, -187500.02, 0.000, 0.000, 0.000, 21:27:12.112, 1592537232112
178, 15890.66, -54970.47, 187500.00, 187500.00, -187500.02, -187500.02, -187500.02, -187500.02, 0.000, 0.000, 0.000, 21:27:12.112, 1592537232112
179, 15855.30, -40431.27, 187500.00, 187500.00, -187500.02, -187500.02, -187500.02, -187500.02, 0.000, 0.000, 0.000, 21:27:12.113, 1592537232113
180, 15839.88, -27520.79, 187500.00, 187500.00, -187500.02, -187500.02, -187500.02, -187500.02, 0.000, 0.000, 0.000, 21:27:12.127, 1592537232127
181, 15839.05, -22247.81, 187500.00, 187500.00, -187500.02, -187500.02, -187500.02, -187500.02, 0.000, 0.000, 0.000, 21:27:12.127, 1592537232127
182, 15861.04, -35930.88, 187500.00, 187500.00, -187500.02, -187500.02, -187500.02, -187500.02, 0.000, 0.000, 0.000, 21:27:12.128, 1592537232128
183, 15859.55, -66158.01, 187500.00, 187500.00, -187500.02, -187500.02, -187500.02, -187500.02, 0.000, 0.000, 0.000, 21:27:12.128, 1592537232128
184, 15868.13, -96944.12, 187500.00, 187500.00, -187500.02, -187500.02, -187500.02, -187500.02, 0.000, 0.000, 0.000, 21:27:12.142, 1592537232142
185, 15853.35, -91953.71, 187500.00, 187500.00, -187500.02, -187500.02, -187500.02, -187500.02, 0.014, -0.040, 0.970, 21:27:12.142, 1592537232142
186, 15860.06, -61072.99, 187500.00, 187500.00, -187500.02, -187500.02, -187500.02, -187500.02, 0.000, 0.000, 0.000, 21:27:12.143, 1592537232143
187, 15866.52, -42581.88, 187500.00, 187500.00, -187500.02, -187500.02, -187500.02, -187500.02, 0.000, 0.000, 0.000, 21:27:12.143, 1592537232143
188, 15839.21, -32956.59, 187500.00, 187500.00, -187500.02, -187500.02, -187500.02, -187500.02, 0.000, 0.000, 0.000, 21:27:12.155, 1592537232155
189, 15855.48, -32672.48, 187500.00, 187500.00, -187500.02, -187500.02, -187500.02, -187500.02, 0.000, 0.000, 0.000, 21:27:12.155, 1592537232155
190, 15867.95, -44269.06, 187500.00, 187500.00, -187500.02, -187500.02, -187500.02, -187500.02, 0.000, 0.000, 0.000, 21:27:12.156, 1592537232156
191, 15905.34, -69219.20, 187500.00, 187500.00, -187500.02, -187500.02, -187500.02, -187500.02, 0.000, 0.000, 0.000, 21:27:12.156, 1592537232156
192, 15887.46, -101789.26, 187500.00, 187500.00, -187500.02, -187500.02, -187500.02, -187500.02, 0.000, 0.000, 0.000, 21:27:12.170, 1592537232170
193, 15852.28, -102077.44, 187500.00, 187500.00, -187500.02, -187500.02, -187500.02, -187500.02, 0.000, 0.000, 0.000, 21:27:12.171, 1592537232171
194, 15812.65, -70535.55, 187500.00, 187500.00, -187500.02, -187500.02, -187500.02, -187500.02, 0.000, 0.000, 0.000, 21:27:12.171, 1592537232171
195, 15782.01, -46670.82, 187500.00, 187500.00, -187500.02, -187500.02, -187500.02, -187500.02, 0.012, -0.044, 0.974, 21:27:12.185, 1592537232185
196, 15816.14, -38027.63, 187500.00, 187500.00, -187500.02, -187500.02, -187500.02, -187500.02, 0.000, 0.000, 0.000, 21:27:12.186, 1592537232186
197, 15885.18, -43824.55, 187500.00, 187500.00, -187500.02, -187500.02, -187500.02, -187500.02, 0.000, 0.000, 0.000, 21:27:12.186, 1592537232186
198, 15906.24, -56998.67, 187500.00, 187500.00, -187500.02, -187500.02, -187500.02, -187500.02, 0.000, 0.000, 0.000, 21:27:12.186, 1592537232186
199, 15932.93, -77323.84, 187500.00, 187500.00, -187500.02, -187500.02, -187500.02, -187500.02, 0.000, 0.000, 0.000, 21:27:12.202, 1592537232202
200, 15915.85, -109875.23, 187500.00, 187500.00, -187500.02, -187500.02, -187500.02, -187500.02, 0.000, 0.000, 0.000, 21:27:12.202, 1592537232202
201, 15862.94, -116298.02, 187500.00, 187500.00, -187500.02, -187500.02, -187500.02, -187500.02, 0.000, 0.000, 0.000, 21:27:12.202, 1592537232202
202, 15820.70, -87864.37, 187500.00, 187500.00, -187500.02, -187500.02, -187500.02, -187500.02, 0.000, 0.000, 0.000, 21:27:12.202, 1592537232202
203, 15798.48, -59533.69, 187500.00, 187500.00, -187500.02, -187500.02, -187500.02, -187500.02, 0.000, 0.000, 0.000, 21:27:12.216, 1592537232216
204, 15798.84, -49098.67, 187500.00, 187500.00, -187500.02, -187500.02, -187500.02, -187500.02, 0.000, 0.000, 0.000, 21:27:12.216, 1592537232216
205, 15831.05, -60158.24, 187500.00, 187500.00, -187500.02, -187500.02, -187500.02, -187500.02, 0.012, -0.046, 0.972, 21:27:12.216, 1592537232216
206, 15850.65, -77111.19, 187500.00, 187500.00, -187500.02, -187500.02, -187500.02, -187500.02, 0.000, 0.000, 0.000, 21:27:12.217, 1592537232217
207, 15873.56, -93359.01, 187500.00, 187500.00, -187500.02, -187500.02, -187500.02, -187500.02, 0.000, 0.000, 0.000, 21:27:12.232, 1592537232232
208, 15871.48, -122436.23, 187500.00, 187500.00, -187500.02, -187500.02, -187500.02, -187500.02, 0.000, 0.000, 0.000, 21:27:12.233, 1592537232233
209, 15857.06, -133119.08, 187500.00, 187500.00, -187500.02, -187500.02, -187500.02, -187500.02, 0.000, 0.000, 0.000, 21:27:12.234, 1592537232234
210, 15846.78, -109671.89, 187500.00, 187500.00, -187500.02, -187500.02, -187500.02, -187500.02, 0.000, 0.000, 0.000, 21:27:12.247, 1592537232247
211, 15847.97, -78465.48, 187500.00, 187500.00, -187500.02, -187500.02, -187500.02, -187500.02, 0.000, 0.000, 0.000, 21:27:12.247, 1592537232247
212, 15858.63, -63453.11, 187500.00, 187500.00, -187500.02, -187500.02, -187500.02, -187500.02, 0.000, 0.000, 0.000, 21:27:12.249, 1592537232249
213, 15881.43, -77497.67, 187500.00, 187500.00, -187500.02, -187500.02, -187500.02, -187500.02, 0.000, 0.000, 0.000, 21:27:12.249, 1592537232249
214, 15893.54, -99579.97, 187500.00, 187500.00, -187500.02, -187500.02, -187500.02, -187500.02, 0.000, 0.000, 0.000, 21:27:12.262, 1592537232262
215, 15920.10, -113773.08, 187500.00, 187500.00, -187500.02, -187500.02, -187500.02, -187500.02, 0.006, -0.044, 0.974, 21:27:12.262, 1592537232262
216, 15896.56, -137192.83, 187500.00, 187500.00, -187500.02, -187500.02, -187500.02, -187500.02, 0.000, 0.000, 0.000, 21:27:12.262, 1592537232262
217, 15852.48, -149242.28, 187500.00, 187500.00, -187500.02, -187500.02, -187500.02, -187500.02, 0.000, 0.000, 0.000, 21:27:12.263, 1592537232263
218, 15854.96, -131165.67, 187500.00, 187500.00, -187500.02, -187500.02, -187500.02, -187500.02, 0.000, 0.000, 0.000, 21:27:12.277, 1592537232277
219, 15855.81, -99645.88, 187500.00, 187500.00, -187500.02, -187500.02, -187500.02, -187500.02, 0.000, 0.000, 0.000, 21:27:12.278, 1592537232278
220, 15867.10, -78870.67, 187500.00, 187500.00, -187500.02, -187500.02, -187500.02, -187500.02, 0.000, 0.000, 0.000, 21:27:12.278, 1592537232278
221, 15892.94, -93322.89, 187500.00, 187500.00, -187500.02, -187500.02, -187500.02, -187500.02, 0.000, 0.000, 0.000, 21:27:12.279, 1592537232279
222, 15881.50, -121063.95, 187500.00, 187500.00, -187500.02, -187500.02, -187500.02, -187500.02, 0.000, 0.000, 0.000, 21:27:12.291, 1592537232291
223, 15875.17, -136270.53, 187500.00, 187500.00, -187500.02, -187500.02, -187500.02, -187500.02, 0.000, 0.000, 0.000, 21:27:12.291, 1592537232291
224, 15855.34, -154170.91, 187500.00, 187500.00, -187500.02, -187500.02, -187500.02, -187500.02, 0.000, 0.000, 0.000, 21:27:12.292, 1592537232292
225, 15830.69, -165328.98, 187500.00, 187500.00, -187500.02, -187500.02, -187500.02, -187500.02, 0.014, -0.042, 0.972, 21:27:12.306, 1592537232306
226, 15832.19, -152747.02, 187500.00, 187500.00, -187500.02, -187500.02, -187500.02, -187500.02, 0.000, 0.000, 0.000, 21:27:12.306, 1592537232306
227, 15853.38, -123869.25, 187500.00, 187500.00, -187500.02, -187500.02, -187500.02, -187500.02, 0.000, 0.000, 0.000, 21:27:12.306, 1592537232306
228, 15859.88, -98163.56, 187500.00, 187500.00, -187500.02, -187500.02, -187500.02, -187500.02, 0.000, 0.000, 0.000, 21:27:12.306, 1592537232306
229, 15878.92, -109875.38, 187500.00, 187500.00, -187500.02, -187500.02, -187500.02, -187500.02, 0.000, 0.000, 0.000, 21:27:12.320, 1592537232320
230, 15880.00, -142113.75, 187500.00, 187500.00, -187500.02, -187500.02, -187500.02, -187500.02, 0.000, 0.000, 0.000, 21:27:12.321, 1592537232321
231, 15875.73, -160749.31, 187500.00, 187500.00, -187500.02, -187500.02, -187500.02, -187500.02, 0.000, 0.000, 0.000, 21:27:12.321, 1592537232321
232, 15880.00, -174252.55, 187500.00, 187500.00, -187500.02, -187500.02, -187500.02, -187500.02, 0.000, 0.000, 0.000, 21:27:12.321, 1592537232321
233, 15862.61, -181381.30, 187500.00, 187500.00, -187500.02, -187500.02, -187500.02, -187500.02, 0.000, 0.000, 0.000, 21:27:12.337, 1592537232337
234, 15850.87, -172483.95, 187500.00, 187500.00, -187500.02, -187500.02, -187500.02, -187500.02, 0.000, 0.000, 0.000, 21:27:12.337, 1592537232337
235, 15849.64, -148043.06, 187500.00, 187500.00, -187500.02, -187500.02, -187500.02, -187500.02, 0.010, -0.042, 0.964, 21:27:12.338, 1592537232338
236, 15859.41, -119178.55, 187500.00, 187500.00, -187500.02, -187500.02, -187500.02, -187500.02, 0.000, 0.000, 0.000, 21:27:12.338, 1592537232338
237, 15880.04, -125676.05, 187500.00, 187500.00, -187500.02, -187500.02, -187500.02, -187500.02, 0.000, 0.000, 0.000, 21:27:12.350, 1592537232350
238, 15883.48, -160413.66, 187500.00, 187500.00, -187500.02, -187500.02, -187500.02, -187500.02, 0.000, 0.000, 0.000, 21:27:12.350, 1592537232350
239, 15883.06, -184108.61, 187500.00, 187500.00, -187500.02, -187500.02, -187500.02, -187500.02, 0.000, 0.000, 0.000, 21:27:12.351, 1592537232351
240, 15879.91, -187500.02, 187500.00, 187500.00, -187500.02, -187500.02, -187500.02, -187500.02, 0.000, 0.000, 0.000, 21:27:12.365, 1592537232365
241, 15849.15, -187500.02, 187500.00, 187500.00, -187500.02, -187500.02, -187500.02, -187500.02, 0.000, 0.000, 0.000, 21:27:12.366, 1592537232366
242, 15846.00, -187500.02, 187500.00, 187500.00, -187500.02, -187500.02, -187500.02, -187500.02, 0.000, 0.000, 0.000, 21:27:12.366, 1592537232366
243, 15856.28, -169824.17, 187500.00, 187500.00, -187500.02, -187500.02, -187500.02, -187500.02, 0.000, 0.000, 0.000, 21:27:12.366, 1592537232366
244, 15864.87, -140264.41, 187500.00, 187500.00, -187500.02, -187500.02, -187500.02, -187500.02, 0.008, -0.040, 0.968, 21:27:12.384, 1592537232384
245, 15891.37, -140482.14, 187500.00, 187500.00, -187500.02, -187500.02, -187500.02, -187500.02, 0.000, 0.000, 0.000, 21:27:12.385, 1592537232385
246, 15896.74, -174629.34, 187500.00, 187500.00, -187500.02, -187500.02, -187500.02, -187500.02, 0.000, 0.000, 0.000, 21:27:12.385, 1592537232385
247, 15881.45, -187500.02, 187500.00, 187500.00, -187500.02, -187500.02, -187500.02, -187500.02, 0.000, 0.000, 0.000, 21:27:12.385, 1592537232385
248, 15876.35, -187500.02, 187500.00, 187500.00, -187500.02, -187500.02, -187500.02, -187500.02, 0.000, 0.000, 0.000, 21:27:12.397, 1592537232397
249, 15885.29, -187500.02, 187500.00, 187500.00, -187500.02, -187500.02, -187500.02, -187500.02, 0.000, 0.000, 0.000, 21:27:12.398, 1592537232398
250, 15876.31, -187500.02, 187500.00, 187500.00, -187500.02, -187500.02, -187500.02, -187500.02, 0.000, 0.000, 0.000, 21:27:12.399, 1592537232399
251, 15859.66, -185098.03, 187500.00, 187500.00, -187500.02, -187500.02, -187500.02, -187500.02, 0.000, 0.000, 0.000, 21:27:12.399, 1592537232399
252, 15856.37, -157149.34, 187500.00, 187500.00, -187500.02, -187500.02, -187500.02, -187500.02, 0.000, 0.000, 0.000, 21:27:12.412, 1592537232412
253, 15882.30, -151253.72, 187500.00, 187500.00, -187500.02, -187500.02, -187500.02, -187500.02, 0.000, 0.000, 0.000, 21:27:12.412, 1592537232412
254, 15884.89, -180658.14, 187500.00, 187500.00, -187500.02, -187500.02, -187500.02, -187500.02, 0.010, -0.038, 0.972, 21:27:12.413, 1592537232413
255, 15876.15, -187500.02, 187500.00, 187500.00, -187500.02, -187500.02, -187500.02, -187500.02, 0.000, 0.000, 0.000, 21:27:12.428, 1592537232428
0, 15891.22, -187500.02, 187500.00, 187500.00, -187500.02, -187500.02, -187500.02, -187500.02, 0.000, 0.000, 0.000, 21:27:12.428, 1592537232428
1, 15888.51, -187500.02, 187500.00, 187500.00, -187500.02, -187500.02, -187500.02, -187500.02, 0.000, 0.000, 0.000, 21:27:12.428, 1592537232428
2, 15866.16, -187500.02, 187500.00, 187500.00, -187500.02, -187500.02, -187500.02, -187500.02, 0.000, 0.000, 0.000, 21:27:12.428, 1592537232428
3, 15866.85, -187500.02, 187500.00, 187500.00, -187500.02, -187500.02, -187500.02, -187500.02, 0.000, 0.000, 0.000, 21:27:12.441, 1592537232441
4, 15878.59, -168581.81, 187500.00, 187500.00, -187500.02, -187500.02, -187500.02, -187500.02, 0.000, 0.000, 0.000, 21:27:12.442, 1592537232442
5, 15890.06, -158967.56, 187500.00, 187500.00, -187500.02, -187500.02, -187500.02, -187500.02, 0.000, 0.000, 0.000, 21:27:12.442, 1592537232442
6, 15885.74, -182255.78, 187500.00, 187500.00, -187500.02, -187500.02, -187500.02, -187500.02, 0.000, 0.000, 0.000, 21:27:12.443, 1592537232443
7, 15875.86, -187500.02, 187500.00, 187500.00, -187500.02, -187500.02, -187500.02, -187500.02, 0.000, 0.000, 0.000, 21:27:12.457, 1592537232457
8, 15883.48, -187500.02, 187500.00, 187500.00, -187500.02, -187500.02, -187500.02, -187500.02, 0.012, -0.038, 0.968, 21:27:12.457, 1592537232457
9, 15895.24, -187500.02, 187500.00, 187500.00, -187500.02, -187500.02, -187500.02, -187500.02, 0.000, 0.000, 0.000, 21:27:12.457, 1592537232457
10, 15888.92, -187500.02, 187500.00, 187500.00, -187500.02, -187500.02, -187500.02, -187500.02, 0.000, 0.000, 0.000, 21:27:12.458, 1592537232458
11, 15883.01, -187500.02, 187500.00, 187500.00, -187500.02, -187500.02, -187500.02, -187500.02, 0.000, 0.000, 0.000, 21:27:12.470, 1592537232470
12, 15891.29, -175900.00, 187500.00, 187500.00, -187500.02, -187500.02, -187500.02, -187500.02, 0.000, 0.000, 0.000, 21:27:12.470, 1592537232470
13, 15927.76, -165522.06, 187500.00, 187500.00, -187500.02, -187500.02, -187500.02, -187500.02, 0.000, 0.000, 0.000, 21:27:12.471, 1592537232471
14, 15927.05, -182561.38, 187500.00, 187500.00, -187500.02, -187500.02, -187500.02, -187500.02, 0.000, 0.000, 0.000, 21:27:12.471, 1592537232471
15, 15880.91, -187500.02, 187500.00, 187500.00, -187500.02, -187500.02, -187500.02, -187500.02, 0.000, 0.000, 0.000, 21:27:12.487, 1592537232487
16, 15883.60, -187500.02, 187500.00, 187500.00, -187500.02, -187500.02, -187500.02, -187500.02, 0.000, 0.000, 0.000, 21:27:12.487, 1592537232487
17, 15900.58, -187500.02, 187500.00, 187500.00, -187500.02, -187500.02, -187500.02, -187500.02, 0.000, 0.000, 0.000, 21:27:12.487, 1592537232487
18, 15887.13, -187500.02, 187500.00, 187500.00, -187500.02, -187500.02, -187500.02, -187500.02, 0.010, -0.044, 0.974, 21:27:12.502, 1592537232502
19, 15879.48, -187500.02, 187500.00, 187500.00, -187500.02, -187500.02, -187500.02, -187500.02, 0.000, 0.000, 0.000, 21:27:12.503, 1592537232503
20, 15868.91, -180900.73, 187500.00, 187500.00, -187500.02, -187500.02, -187500.02, -187500.02, 0.000, 0.000, 0.000, 21:27:12.503, 1592537232503
21, 15889.16, -173533.59, 187500.00, 187500.00, -187500.02, -187500.02, -187500.02, -187500.02, 0.000, 0.000, 0.000, 21:27:12.503, 1592537232503
22, 15903.06, -185584.61, 187500.00, 187500.00, -187500.02, -187500.02, -187500.02, -187500.02, 0.000, 0.000, 0.000, 21:27:12.519, 1592537232519
23, 15902.91, -187500.02, 187500.00, 187500.00, -187500.02, -187500.02, -187500.02, -187500.02, 0.000, 0.000, 0.000, 21:27:12.519, 1592537232519
24, 15900.83, -187500.02, 187500.00, 187500.00, -187500.02, -187500.02, -187500.02, -187500.02, 0.000, 0.000, 0.000, 21:27:12.519, 1592537232519
25, 15905.30, -187500.02, 187500.00, 187500.00, -187500.02, -187500.02, -187500.02, -187500.02, 0.000, 0.000, 0.000, 21:27:12.519, 1592537232519
26, 15903.02, -187500.02, 187500.00, 187500.00, -187500.02, -187500.02, -187500.02, -187500.02, 0.000, 0.000, 0.000, 21:27:12.532, 1592537232532
27, 15892.13, -187500.02, 187500.00, 187500.00, -187500.02, -187500.02, -187500.02, -187500.02, 0.000, 0.000, 0.000, 21:27:12.533, 1592537232533
28, 15895.98, -182424.84, 187500.00, 187500.00, -187500.02, -187500.02, -187500.02, -187500.02, 0.012, -0.048, 0.974, 21:27:12.534, 1592537232534
29, 15911.27, -179502.66, 187500.00, 187500.00, -187500.02, -187500.02, -187500.02, -187500.02, 0.000, 0.000, 0.000, 21:27:12.535, 1592537232535
30, 15917.08, -187500.02, 187500.00, 187500.00, -187500.02, -187500.02, -187500.02, -187500.02, 0.000, 0.000, 0.000, 21:27:12.548, 1592537232548
31, 15904.36, -187500.02, 187500.00, 187500.00, -187500.02, -187500.02, -187500.02, -187500.02, 0.000, 0.000, 0.000, 21:27:12.549, 1592537232549
32, 15901.43, -187500.02, 187500.00, 187500.00, -187500.02, -187500.02, -187500.02, -187500.02, 0.000, 0.000, 0.000, 21:27:12.550, 1592537232550
33, 15914.51, -187500.02, 187500.00, 187500.00, -187500.02, -187500.02, -187500.02, -187500.02, 0.000, 0.000, 0.000, 21:27:12.561, 1592537232561
34, 15913.77, -187500.02, 187500.00, 187500.00, -187500.02, -187500.02, -187500.02, -187500.02, 0.000, 0.000, 0.000, 21:27:12.561, 1592537232561
35, 15903.33, -186513.97, 187500.00, 187500.00, -187500.02, -187500.02, -187500.02, -187500.02, 0.000, 0.000, 0.000, 21:27:12.562, 1592537232562
36, 15899.98, -178579.03, 187500.00, 187500.00, -187500.02, -187500.02, -187500.02, -187500.02, 0.000, 0.000, 0.000, 21:27:12.563, 1592537232563
37, 15919.05, -181574.75, 187500.00, 187500.00, -187500.02, -187500.02, -187500.02, -187500.02, 0.000, 0.000, 0.000, 21:27:12.577, 1592537232577
38, 15912.88, -187500.02, 187500.00, 187500.00, -187500.02, -187500.02, -187500.02, -187500.02, 0.014, -0.046, 0.972, 21:27:12.578, 1592537232578
39, 15898.50, -187500.02, 187500.00, 187500.00, -187500.02, -187500.02, -187500.02, -187500.02, 0.000, 0.000, 0.000, 21:27:12.578, 1592537232578
40, 15888.98, -187500.02, 187500.00, 187500.00, -187500.02, -187500.02, -187500.02, -187500.02, 0.000, 0.000, 0.000, 21:27:12.579, 1592537232579
41, 15899.40, -187500.02, 187500.00, 187500.00, -187500.02, -187500.02, -187500.02, -187500.02, 0.000, 0.000, 0.000, 21:27:12.591, 1592537232591
42, 15907.47, -187500.02, 187500.00, 187500.00, -187500.02, -187500.02, -187500.02, -187500.02, 0.000, 0.000, 0.000, 21:27:12.591, 1592537232591
43, 15889.23, -182591.06, 187500.00, 187500.00, -187500.02, -187500.02, -187500.02, -187500.02, 0.000, 0.000, 0.000, 21:27:12.591, 1592537232591
44, 15895.20, -172880.33, 187500.00, 187500.00, -187500.02, -187500.02, -187500.02, -187500.02, 0.000, 0.000, 0.000, 21:27:12.591, 1592537232591
45, 15918.44, -181703.25, 187500.00, 187500.00, -187500.02, -187500.02, -187500.02, -187500.02, 0.000, 0.000, 0.000, 21:27:12.606, 1592537232606
46, 15910.04, -187500.02, 187500.00, 187500.00, -187500.02, -187500.02, -187500.02, -187500.02, 0.000, 0.000, 0.000, 21:27:12.606, 1592537232606
47, 15923.34, -187500.02, 187500.00, 187500.00, -187500.02, -187500.02, -187500.02, -187500.02, 0.000, 0.000, 0.000, 21:27:12.606, 1592537232606
48, 15877.40, -187500.02, 187500.00, 187500.00, -187500.02, -187500.02, -187500.02, -187500.02, 0.016, -0.040, 0.974, 21:27:12.621, 1592537232621
49, 15882.70, -187500.02, 187500.00, 187500.00, -187500.02, -187500.02, -187500.02, -187500.02, 0.000, 0.000, 0.000, 21:27:12.621, 1592537232621
50, 15893.81, -187500.02, 187500.00, 187500.00, -187500.02, -187500.02, -187500.02, -187500.02, 0.000, 0.000, 0.000, 21:27:12.622, 1592537232622
51, 15892.60, -182282.94, 187500.00, 187500.00, -187500.02, -187500.02, -187500.02, -187500.02, 0.000, 0.000, 0.000, 21:27:12.622, 1592537232622
52, 15900.18, -168305.48, 187500.00, 187500.00, -187500.02, -187500.02, -187500.02, -187500.02, 0.000, 0.000, 0.000, 21:27:12.637, 1592537232637
53, 15918.53, -181110.30, 187500.00, 187500.00, -187500.02, -187500.02, -187500.02, -187500.02, 0.000, 0.000, 0.000, 21:27:12.638, 1592537232638
54, 15921.39, -187500.02, 187500.00, 187500.00, -187500.02, -187500.02, -187500.02, -187500.02, 0.000, 0.000, 0.000, 21:27:12.638, 1592537232638
55, 15929.66, -187500.02, 187500.00, 187500.00, -187500.02, -187500.02, -187500.02, -187500.02, 0.000, 0.000, 0.000, 21:27:12.638, 1592537232638
56, 15927.94, -187500.02, 187500.00, 187500.00, -187500.02, -187500.02, -187500.02, -187500.02, 0.000, 0.000, 0.000, 21:27:12.654, 1592537232654
57, 15896.76, -187500.02, 187500.00, 187500.00, -187500.02, -187500.02, -187500.02, -187500.02, 0.000, 0.000, 0.000, 21:27:12.654, 1592537232654
58, 15888.42, -187500.02, 187500.00, 187500.00, -187500.02, -187500.02, -187500.02, -187500.02, 0.012, -0.044, 0.974, 21:27:12.654, 1592537232654
59, 15900.49, -185206.66, 187500.00, 187500.00, -187500.02, -187500.02, -187500.02, -187500.02, 0.000, 0.000, 0.000, 21:27:12.655, 1592537232655
60, 15896.72, -165982.39, 187500.00, 187500.00, -187500.02, -187500.02, -187500.02, -187500.02, 0.000, 0.000, 0.000, 21:27:12.667, 1592537232667
61, 15900.34, -179524.64, 187500.00, 187500.00, -187500.02, -187500.02, -187500.02, -187500.02, 0.000, 0.000, 0.000, 21:27:12.668, 1592537232668
62, 15914.08, -187500.02, 187500.00, 187500.00, -187500.02, -187500.02, -187500.02, -187500.02, 0.000, 0.000, 0.000, 21:27:12.668, 1592537232668
63, 15929.17, -187500.02, 187500.00, 187500.00, -187500.02, -187500.02, -187500.02, -187500.02, 0.000, 0.000, 0.000, 21:27:12.683, 1592537232683
64, 15916.63, -187500.02, 187500.00, 187500.00, -187500.02, -187500.02, -187500.02, -187500.02, 0.000, 0.000, 0.000, 21:27:12.684, 1592537232684
65, 15913.57, -187500.02, 187500.00, 187500.00, -187500.02, -187500.02, -187500.02, -187500.02, 0.000, 0.000, 0.000, 21:27:12.685, 1592537232685
66, 15906.17, -187500.02, 187500.00, 187500.00, -187500.02, -187500.02, -187500.02, -187500.02, 0.000, 0.000, 0.000, 21:27:12.685, 1592537232685
67, 15904.34, -187500.02, 187500.00, 187500.00, -187500.02, -187500.02, -187500.02, -187500.02, 0.010, -0.044, 0.972, 21:27:12.697, 1592537232697
68, 15903.06, -164321.84, 187500.00, 187500.00, -187500.02, -187500.02, -187500.02, -187500.02, 0.000, 0.000, 0.000, 21:27:12.698, 1592537232698
69, 15923.67, -175372.09, 187500.00, 187500.00, -187500.02, -187500.02, -187500.02, -187500.02, 0.000, 0.000, 0.000, 21:27:12.698, 1592537232698
70, 15899.35, -187500.02, 187500.00, 187500.00, -187500.02, -187500.02, -187500.02, -187500.02, 0.000, 0.000, 0.000, 21:27:12.698, 1592537232698
71, 15879.97, -187500.02, 187500.00, 187500.00, -187500.02, -187500.02, -187500.02, -187500.02, 0.000, 0.000, 0.000, 21:27:12.712, 1592537232712
72, 15884.78, -187500.02, 187500.00, 187500.00, -187500.02, -187500.02, -187500.02, -187500.02, 0.000, 0.000, 0.000, 21:27:12.713, 1592537232713
73, 15852.68, -187500.02, 187500.00, 187500.00, -187500.02, -187500.02, -187500.02, -187500.02, 0.000, 0.000, 0.000, 21:27:12.713, 1592537232713
74, 15870.61, -187500.02, 187500.00, 187500.00, -187500.02, -187500.02, -187500.02, -187500.02, 0.000, 0.000, 0.000, 21:27:12.714, 1592537232714
75, 15897.14, -187500.02, 187500.00, 187500.00, -187500.02, -187500.02, -187500.02, -187500.02, 0.000, 0.000, 0.000, 21:27:12.726, 1592537232726
76, 15897.54, -164496.86, 187500.00, 187500.00, -187500.02, -187500.02, -187500.02, -187500.02, 0.000, 0.000, 0.000, 21:27:12.726, 1592537232726
77, 15918.31, -170350.38, 187500.00, 187500.00, -187500.02, -187500.02, -187500.02, -187500.02, 0.010, -0.044, 0.972, 21:27:12.727, 1592537232727
78, 15920.21, -187500.02, 187500.00, 187500.00, -187500.02, -187500.02, -187500.02, -187500.02, 0.000, 0.000, 0.000, 21:27:12.741, 1592537232741
79, 15901.32, -187500.02, 187500.00, 187500.00, -187500.02, -187500.02, -187500.02, -187500.02, 0.000, 0.000, 0.000, 21:27:12.742, 1592537232742
80, 15888.16, -187500.02, 187500.00, 187500.00, -187500.02, -187500.02, -187500.02, -187500.02, 0.000, 0.000, 0.000, 21:27:12.742, 1592537232742
81, 15875.39, -187500.02, 187500.00, 187500.00, -187500.02, -187500.02, -187500.02, -187500.02, 0.000, 0.000, 0.000, 21:27:12.742, 1592537232742
82, 15894.30, -187500.02, 187500.00, 187500.00, -187500.02, -187500.02, -187500.02, -187500.02, 0.000, 0.000, 0.000, 21:27:12.756, 1592537232756
83, 15896.31, -187500.02, 187500.00, 187500.00, -187500.02, -187500.02, -187500.02, -187500.02, 0.000, 0.000, 0.000, 21:27:12.757, 1592537232757
84, 15898.93, -164038.00, 187500.00, 187500.00, -187500.02, -187500.02, -187500.02, -187500.02, 0.000, 0.000, 0.000, 21:27:12.757, 1592537232757
85, 15926.11, -163314.52, 187500.00, 187500.00, -187500.02, -187500.02, -187500.02, -187500.02, 0.000, 0.000, 0.000, 21:27:12.757, 1592537232757
86, 15936.44, -187500.02, 187500.00, 187500.00, -187500.02, -187500.02, -187500.02, -187500.02, 0.000, 0.000, 0.000, 21:27:12.773, 1592537232773
87, 15922.47, -187500.02, 187500.00, 187500.00, -187500.02, -187500.02, -187500.02, -187500.02, 0.014, -0.044, 0.970, 21:27:12.773, 1592537232773
88, 15920.23, -187500.02, 187500.00, 187500.00, -187500.02, -187500.02, -187500.02, -187500.02, 0.000, 0.000, 0.000, 21:27:12.773, 1592537232773
89, 15881.20, -187500.02, 187500.00, 187500.00, -187500.02, -187500.02, -187500.02, -187500.02, 0.000, 0.000, 0.000, 21:27:12.773, 1592537232773
90, 15871.66, -187500.02, 187500.00, 187500.00, -187500.02, -187500.02, -187500.02, -187500.02, 0.000, 0.000, 0.000, 21:27:12.787, 1592537232787
91, 15880.33, -187500.02, 187500.00, 187500.00, -187500.02, -187500.02, -187500.02, -187500.02, 0.000, 0.000, 0.000, 21:27:12.787, 1592537232787
92, 15900.07, -169835.86, 187500.00, 187500.00, -187500.02, -187500.02, -187500.02, -187500.02, 0.000, 0.000, 0.000, 21:27:12.788, 1592537232788
93, 15915.20, -163911.91, 187500.00, 187500.00, -187500.02, -187500.02, -187500.02, -187500.02, 0.000, 0.000, 0.000, 21:27:12.801, 1592537232801
94, 15904.63, -187500.02, 187500.00, 187500.00, -187500.02, -187500.02, -187500.02, -187500.02, 0.000, 0.000, 0.000, 21:27:12.802, 1592537232802
95, 15879.80, -187500.02, 187500.00, 187500.00, -187500.02, -187500.02, -187500.02, -187500.02, 0.000, 0.000, 0.000, 21:27:12.803, 1592537232803
96, 15899.04, -187500.02, 187500.00, 187500.00, -187500.02, -187500.02, -187500.02, -187500.02, 0.000, 0.000, 0.000, 21:27:12.803, 1592537232803
97, 15911.25, -187500.02, 187500.00, 187500.00, -187500.02, -187500.02, -187500.02, -187500.02, 0.014, -0.046, 0.966, 21:27:12.817, 1592537232817
98, 15894.35, -187500.02, 187500.00, 187500.00, -187500.02, -187500.02, -187500.02, -187500.02, 0.000, 0.000, 0.000, 21:27:12.817, 1592537232817
99, 15899.89, -187500.02, 187500.00, 187500.00, -187500.02, -187500.02, -187500.02, -187500.02, 0.000, 0.000, 0.000, 21:27:12.817, 1592537232817
100, 15907.22, -184080.38, 187500.00, 187500.00, -187500.02, -187500.02, -187500.02, -187500.02, 0.000, 0.000, 0.000, 21:27:12.818, 1592537232818
101, 15904.92, -175406.81, 187500.00, 187500.00, -187500.02, -187500.02, -187500.02, -187500.02, 0.000, 0.000, 0.000, 21:27:12.831, 1592537232831
102, 15895.06, -187500.02, 187500.00, 187500.00, -187500.02, -187500.02, -187500.02, -187500.02, 0.000, 0.000, 0.000, 21:27:12.831, 1592537232831
103, 15904.18, -187500.02, 187500.00, 187500.00, -187500.02, -187500.02, -187500.02, -187500.02, 0.000, 0.000, 0.000, 21:27:12.831, 1592537232831
104, 15907.27, -187500.02, 187500.00, 187500.00, -187500.02, -187500.02, -187500.02, -187500.02, 0.000, 0.000, 0.000, 21:27:12.831, 1592537232831
105, 15919.90, -187500.02, 187500.00, 187500.00, -187500.02, -187500.02, -187500.02, -187500.02, 0.000, 0.000, 0.000, 21:27:12.848, 1592537232848
106, 15921.28, -187500.02, 187500.00, 187500.00, -187500.02, -187500.02, -187500.02, -187500.02, 0.000, 0.000, 0.000, 21:27:12.848, 1592537232848
107, 15881.96, -187500.02, 187500.00, 187500.00, -187500.02, -187500.02, -187500.02, -187500.02, 0.014, -0.042, 0.968, 21:27:12.848, 1592537232848
108, 15863.73, -187500.02, 187500.00, 187500.00, -187500.02, -187500.02, -187500.02, -187500.02, 0.000, 0.000, 0.000, 21:27:12.861, 1592537232861
109, 15870.74, -187500.02, 187500.00, 187500.00, -187500.02, -187500.02, -187500.02, -187500.02, 0.000, 0.000, 0.000, 21:27:12.861, 1592537232861
110, 15876.67, -187500.02, 187500.00, 187500.00, -187500.02, -187500.02, -187500.02, -187500.02, 0.000, 0.000, 0.000, 21:27:12.861, 1592537232861
111, 15874.05, -187500.02, 187500.00, 187500.00, -187500.02, -187500.02, -187500.02, -187500.02, 0.000, 0.000, 0.000, 21:27:12.861, 1592537232861
112, 15890.84, -187500.02, 187500.00, 187500.00, -187500.02, -187500.02, -187500.02, -187500.02, 0.000, 0.000, 0.000, 21:27:12.877, 1592537232877
113, 15899.53, -187500.02, 187500.00, 187500.00, -187500.02, -187500.02, -187500.02, -187500.02, 0.000, 0.000, 0.000, 21:27:12.877, 1592537232877
114, 15892.29, -187500.02, 187500.00, 187500.00, -187500.02, -187500.02, -187500.02, -187500.02, 0.000, 0.000, 0.000, 21:27:12.877, 1592537232877
115, 15894.64, -187500.02, 187500.00, 187500.00, -187500.02, -187500.02, -187500.02, -187500.02, 0.000, 0.000, 0.000, 21:27:12.877, 1592537232877
116, 15915.34, -187500.02, 187500.00, 187500.00, -187500.02, -187500.02, -187500.02, -187500.02, 0.000, 0.000, 0.000, 21:27:12.892, 1592537232892
117, 15912.85, -187500.02, 187500.00, 187500.00, -187500.02, -187500.02, -187500.02, -187500.02, 0.016, -0.042, 0.972, 21:27:12.892, 1592537232892
118, 15921.82, -187500.02, 187500.00, 187500.00, -187500.02, -187500.02, -187500.02, -187500.02, 0.000, 0.000, 0.000, 21:27:12.892, 1592537232892
119, 15895.76, -187500.02, 187500.00, 187500.00, -187500.02, -187500.02, -187500.02, -187500.02, 0.000, 0.000, 0.000, 21:27:12.892, 1592537232892
120, 15880.00, -187500.02, 187500.00, 187500.00, -187500.02, -187500.02, -187500.02, -187500.02, 0.000, 0.000, 0.000, 21:27:12.907, 1592537232907
121, 15895.02, -187500.02, 187500.00, 187500.00, -187500.02, -187500.02, -187500.02, -187500.02, 0.000, 0.000, 0.000, 21:27:12.908, 1592537232908
122, 15911.83, -187500.02, 187500.00, 187500.00, -187500.02, -187500.02, -187500.02, -187500.02, 0.000, 0.000, 0.000, 21:27:12.908, 1592537232908
123, 15916.30, -187500.02, 187500.00, 187500.00, -187500.02, -187500.02, -187500.02, -187500.02, 0.000, 0.000, 0.000, 21:27:12.922, 1592537232922
124, 15902.51, -187500.02, 187500.00, 187500.00, -187500.02, -187500.02, -187500.02, -187500.02, 0.000, 0.000, 0.000, 21:27:12.923, 1592537232923
125, 15890.48, -187500.02, 187500.00, 187500.00, -187500.02, -187500.02, -187500.02, -187500.02, 0.000, 0.000, 0.000, 21:27:12.924, 1592537232924
126, 15897.07, -187500.02, 187500.00, 187500.00, -187500.02, -187500.02, -187500.02, -187500.02, 0.000, 0.000, 0.000, 21:27:12.924, 1592537232924
127, 15886.48, -187500.02, 187500.00, 187500.00, -187500.02, -187500.02, -187500.02, -187500.02, 0.012, -0.042, 0.974, 21:27:12.939, 1592537232939
128, 15884.47, -187500.02, 187500.00, 187500.00, -187500.02, -187500.02, -187500.02, -187500.02, 0.000, 0.000, 0.000, 21:27:12.939, 1592537232939
129, 15899.38, -187500.02, 187500.00, 187500.00, -187500.02, -187500.02, -187500.02, -187500.02, 0.000, 0.000, 0.000, 21:27:12.940, 1592537232940
130, 15909.88, -187500.02, 187500.00, 187500.00, -187500.02, -187500.02, -187500.02, -187500.02, 0.000, 0.000, 0.000, 21:27:12.940, 1592537232940
131, 15902.95, -187500.02, 187500.00, 187500.00, -187500.02, -187500.02, -187500.02, -187500.02, 0.000, 0.000, 0.000, 21:27:12.953, 1592537232953
132, 15895.33, -187500.02, 187500.00, 187500.00, -187500.02, -187500.02, -187500.02, -187500.02, 0.000, 0.000, 0.000, 21:27:12.954, 1592537232954
133, 15897.01, -187500.02, 187500.00, 187500.00, -187500.02, -187500.02, -187500.02, -187500.02, 0.000, 0.000, 0.000, 21:27:12.954, 1592537232954
134, 15918.55, -187500.02, 187500.00, 187500.00, -187500.02, -187500.02, -187500.02, -187500.02, 0.000, 0.000, 0.000, 21:27:12.955, 1592537232955
135, 15916.59, -187500.02, 187500.00, 187500.00, -187500.02, -187500.02, -187500.02, -187500.02, 0.000, 0.000, 0.000, 21:27:12.966, 1592537232966
136, 15900.36, -187500.02, 187500.00, 187500.00, -187500.02, -187500.02, -187500.02, -187500.02, 0.000, 0.000, 0.000, 21:27:12.966, 1592537232966
137, 15908.03, -187500.02, 187500.00, 187500.00, -187500.02, -187500.02, -187500.02, -187500.02, 0.012, -0.042, 0.970, 21:27:12.966, 1592537232966
138, 15922.67, -187500.02, 187500.00, 187500.00, -187500.02, -187500.02, -187500.02, -187500.02, 0.000, 0.000, 0.000, 21:27:12.966, 1592537232966
139, 15922.85, -187500.02, 187500.00, 187500.00, -187500.02, -187500.02, -187500.02, -187500.02, 0.000, 0.000, 0.000, 21:27:12.981, 1592537232981
140, 15925.80, -187500.02, 187500.00, 187500.00, -187500.02, -187500.02, -187500.02, -187500.02, 0.000, 0.000, 0.000, 21:27:12.982, 1592537232982
141, 15907.29, -187500.02, 187500.00, 187500.00, -187500.02, -187500.02, -187500.02, -187500.02, 0.000, 0.000, 0.000, 21:27:12.982, 1592537232982
142, 15910.13, -187500.02, 187500.00, 187500.00, -187500.02, -187500.02, -187500.02, -187500.02, 0.000, 0.000, 0.000, 21:27:12.996, 1592537232996
143, 15933.13, -187500.02, 187500.00, 187500.00, -187500.02, -187500.02, -187500.02, -187500.02, 0.000, 0.000, 0.000, 21:27:12.996, 1592537232996
144, 15917.15, -187500.02, 187500.00, 187500.00, -187500.02, -187500.02, -187500.02, -187500.02, 0.000, 0.000, 0.000, 21:27:12.996, 1592537232996
145, 15886.37, -187500.02, 187500.00, 187500.00, -187500.02, -187500.02, -187500.02, -187500.02, 0.000, 0.000, 0.000, 21:27:12.996, 1592537232996
146, 15886.08, -187500.02, 187500.00, 187500.00, -187500.02, -187500.02, -187500.02, -187500.02, 0.000, 0.000, 0.000, 21:27:13.012, 1592537233012
147, 15906.66, -187500.02, 187500.00, 187500.00, -187500.02, -187500.02, -187500.02, -187500.02, 0.008, -0.044, 0.966, 21:27:13.012, 1592537233012
148, 15913.30, -187500.02, 187500.00, 187500.00, -187500.02, -187500.02, -187500.02, -187500.02, 0.000, 0.000, 0.000, 21:27:13.012, 1592537233012
149, 15906.73, -187500.02, 187500.00, 187500.00, -187500.02, -187500.02, -187500.02, -187500.02, 0.000, 0.000, 0.000, 21:27:13.012, 1592537233012
150, 15916.61, -187500.02, 187500.00, 187500.00, -187500.02, -187500.02, -187500.02, -187500.02, 0.000, 0.000, 0.000, 21:27:13.027, 1592537233027
151, 15927.43, -187500.02, 187500.00, 187500.00, -187500.02, -187500.02, -187500.02, -187500.02, 0.000, 0.000, 0.000, 21:27:13.027, 1592537233027
152, 15898.68, -187500.02, 187500.00, 187500.00, -187500.02, -187500.02, -187500.02, -187500.02, 0.000, 0.000, 0.000, 21:27:13.027, 1592537233027
153, 15896.52, -187500.02, 187500.00, 187500.00, -187500.02, -187500.02, -187500.02, -187500.02, 0.000, 0.000, 0.000, 21:27:13.027, 1592537233027
154, 15912.38, -187500.02, 187500.00, 187500.00, -187500.02, -187500.02, -187500.02, -187500.02, 0.000, 0.000, 0.000, 21:27:13.041, 1592537233041
155, 15928.28, -187500.02, 187500.00, 187500.00, -187500.02, -187500.02, -187500.02, -187500.02, 0.000, 0.000, 0.000, 21:27:13.042, 1592537233042
156, 15915.38, -187500.02, 187500.00, 187500.00, -187500.02, -187500.02, -187500.02, -187500.02, 0.004, -0.046, 0.968, 21:27:13.042, 1592537233042
157, 15902.68, -187500.02, 187500.00, 187500.00, -187500.02, -187500.02, -187500.02, -187500.02, 0.000, 0.000, 0.000, 21:27:13.057, 1592537233057
158, 15936.84, -187500.02, 187500.00, 187500.00, -187500.02, -187500.02, -187500.02, -187500.02, 0.000, 0.000, 0.000, 21:27:13.058, 1592537233058
159, 15966.77, -187500.02, 187500.00, 187500.00, -187500.02, -187500.02, -187500.02, -187500.02, 0.000, 0.000, 0.000, 21:27:13.058, 1592537233058
160, 15945.02, -187500.02, 187500.00, 187500.00, -187500.02, -187500.02, -187500.02, -187500.02, 0.000, 0.000, 0.000, 21:27:13.058, 1592537233058
161, 15901.99, -187500.02, 187500.00, 187500.00, -187500.02, -187500.02, -187500.02, -187500.02, 0.000, 0.000, 0.000, 21:27:13.072, 1592537233072
162, 15901.95, -187500.02, 187500.00, 187500.00, -187500.02, -187500.02, -187500.02, -187500.02, 0.000, 0.000, 0.000, 21:27:13.074, 1592537233074
163, 15924.63, -187500.02, 187500.00, 187500.00, -187500.02, -187500.02, -187500.02, -187500.02, 0.000, 0.000, 0.000, 21:27:13.074, 1592537233074
164, 15924.03, -187500.02, 187500.00, 187500.00, -187500.02, -187500.02, -187500.02, -187500.02, 0.000, 0.000, 0.000, 21:27:13.074, 1592537233074
165, 15879.66, -187500.02, 187500.00, 187500.00, -187500.02, -187500.02, -187500.02, -187500.02, 0.000, 0.000, 0.000, 21:27:13.089, 1592537233089
166, 15889.50, -187500.02, 187500.00, 187500.00, -187500.02, -187500.02, -187500.02, -187500.02, 0.002, -0.048, 0.974, 21:27:13.089, 1592537233089
167, 15911.42, -187500.02, 187500.00, 187500.00, -187500.02, -187500.02, -187500.02, -187500.02, 0.000, 0.000, 0.000, 21:27:13.090, 1592537233090
168, 15902.28, -187500.02, 187500.00, 187500.00, -187500.02, -187500.02, -187500.02, -187500.02, 0.000, 0.000, 0.000, 21:27:13.090, 1592537233090
169, 15874.68, -187500.02, 187500.00, 187500.00, -187500.02, -187500.02, -187500.02, -187500.02, 0.000, 0.000, 0.000, 21:27:13.102, 1592537233102
170, 15879.71, -187500.02, 187500.00, 187500.00, -187500.02, -187500.02, -187500.02, -187500.02, 0.000, 0.000, 0.000, 21:27:13.103, 1592537233103
171, 15911.45, -187500.02, 187500.00, 187500.00, -187500.02, -187500.02, -187500.02, -187500.02, 0.000, 0.000, 0.000, 21:27:13.103, 1592537233103
172, 15906.57, -187500.02, 187500.00, 187500.00, -187500.02, -187500.02, -187500.02, -187500.02, 0.000, 0.000, 0.000, 21:27:13.117, 1592537233117
173, 15912.45, -187500.02, 187500.00, 187500.00, -187500.02, -187500.02, -187500.02, -187500.02, 0.000, 0.000, 0.000, 21:27:13.117, 1592537233117
174, 15928.37, -187500.02, 187500.00, 187500.00, -187500.02, -187500.02, -187500.02, -187500.02, 0.000, 0.000, 0.000, 21:27:13.118, 1592537233118
175, 15936.08, -187500.02, 187500.00, 187500.00, -187500.02, -187500.02, -187500.02, -187500.02, 0.000, 0.000, 0.000, 21:27:13.118, 1592537233118
176, 15918.08, -187500.02, 187500.00, 187500.00, -187500.02, -187500.02, -187500.02, -187500.02, 0.008, -0.044, 0.976, 21:27:13.131, 1592537233131
177, 15913.41, -187500.02, 187500.00, 187500.00, -187500.02, -187500.02, -187500.02, -187500.02, 0.000, 0.000, 0.000, 21:27:13.131, 1592537233131
178, 15915.25, -187500.02, 187500.00, 187500.00, -187500.02, -187500.02, -187500.02, -187500.02, 0.000, 0.000, 0.000, 21:27:13.131, 1592537233131
179, 15929.13, -187500.02, 187500.00, 187500.00, -187500.02, -187500.02, -187500.02, -187500.02, 0.000, 0.000, 0.000, 21:27:13.131, 1592537233131
180, 15949.58, -187500.02, 187500.00, 187500.00, -187500.02, -187500.02, -187500.02, -187500.02, 0.000, 0.000, 0.000, 21:27:13.147, 1592537233147
181, 15906.75, -187500.02, 187500.00, 187500.00, -187500.02, -187500.02, -187500.02, -187500.02, 0.000, 0.000, 0.000, 21:27:13.147, 1592537233147
182, 15911.09, -187500.02, 187500.00, 187500.00, -187500.02, -187500.02, -187500.02, -187500.02, 0.000, 0.000, 0.000, 21:27:13.147, 1592537233147
183, 15902.82, -187500.02, 187500.00, 187500.00, -187500.02, -187500.02, -187500.02, -187500.02, 0.000, 0.000, 0.000, 21:27:13.148, 1592537233148
184, 15940.46, -187500.02, 187500.00, 187500.00, -187500.02, -187500.02, -187500.02, -187500.02, 0.000, 0.000, 0.000, 21:27:13.161, 1592537233161
185, 15942.22, -187500.02, 187500.00, 187500.00, -187500.02, -187500.02, -187500.02, -187500.02, 0.000, 0.000, 0.000, 21:27:13.161, 1592537233161
186, 15892.51, -187500.02, 187500.00, 187500.00, -187500.02, -187500.02, -187500.02, -187500.02, 0.012, -0.048, 0.978, 21:27:13.161, 1592537233161
187, 15888.31, -187500.02, 187500.00, 187500.00, -187500.02, -187500.02, -187500.02, -187500.02, 0.000, 0.000, 0.000, 21:27:13.177, 1592537233177
188, 15909.55, -187500.02, 187500.00, 187500.00, -187500.02, -187500.02, -187500.02, -187500.02, 0.000, 0.000, 0.000, 21:27:13.177, 1592537233177
189, 15905.81, -187500.02, 187500.00, 187500.00, -187500.02, -187500.02, -187500.02, -187500.02, 0.000, 0.000, 0.000, 21:27:13.177, 1592537233177
190, 15892.72, -187500.02, 187500.00, 187500.00, -187500.02, -187500.02, -187500.02, -187500.02, 0.000, 0.000, 0.000, 21:27:13.177, 1592537233177
191, 15901.05, -187500.02, 187500.00, 187500.00, -187500.02, -187500.02, -187500.02, -187500.02, 0.000, 0.000, 0.000, 21:27:13.191, 1592537233191
192, 15925.97, -187500.02, 187500.00, 187500.00, -187500.02, -187500.02, -187500.02, -187500.02, 0.000, 0.000, 0.000, 21:27:13.192, 1592537233192
193, 15926.38, -187500.02, 187500.00, 187500.00, -187500.02, -187500.02, -187500.02, -187500.02, 0.000, 0.000, 0.000, 21:27:13.192, 1592537233192
194, 15901.61, -187500.02, 187500.00, 187500.00, -187500.02, -187500.02, -187500.02, -187500.02, 0.000, 0.000, 0.000, 21:27:13.192, 1592537233192
195, 15895.64, -187500.02, 187500.00, 187500.00, -187500.02, -187500.02, -187500.02, -187500.02, 0.000, 0.000, 0.000, 21:27:13.208, 1592537233208
196, 15925.13, -187500.02, 187500.00, 187500.00, -187500.02, -187500.02, -187500.02, -187500.02, 0.010, -0.052, 0.978, 21:27:13.208, 1592537233208
197, 15916.95, -187500.02, 187500.00, 187500.00, -187500.02, -187500.02, -187500.02, -187500.02, 0.000, 0.000, 0.000, 21:27:13.208, 1592537233208
198, 15906.62, -187500.02, 187500.00, 187500.00, -187500.02, -187500.02, -187500.02, -187500.02, 0.000, 0.000, 0.000, 21:27:13.208, 1592537233208
199, 15911.04, -187500.02, 187500.00, 187500.00, -187500.02, -187500.02, -187500.02, -187500.02, 0.000, 0.000, 0.000, 21:27:13.222, 1592537233222
200, 15911.51, -187500.02, 187500.00, 187500.00, -187500.02, -187500.02, -187500.02, -187500.02, 0.000, 0.000, 0.000, 21:27:13.223, 1592537233223
201, 15921.24, -187500.02, 187500.00, 187500.00, -187500.02, -187500.02, -187500.02, -187500.02, 0.000, 0.000, 0.000, 21:27:13.224, 1592537233224
202, 15914.46, -187500.02, 187500.00, 187500.00, -187500.02, -187500.02, -187500.02, -187500.02, 0.000, 0.000, 0.000, 21:27:13.238, 1592537233238
203, 15901.32, -187500.02, 187500.00, 187500.00, -187500.02, -187500.02, -187500.02, -187500.02, 0.000, 0.000, 0.000, 21:27:13.239, 1592537233239
204, 15905.57, -187500.02, 187500.00, 187500.00, -187500.02, -187500.02, -187500.02, -187500.02, 0.000, 0.000, 0.000, 21:27:13.239, 1592537233239
205, 15923.96, -187500.02, 187500.00, 187500.00, -187500.02, -187500.02, -187500.02, -187500.02, 0.000, 0.000, 0.000, 21:27:13.240, 1592537233240
206, 15908.50, -187500.02, 187500.00, 187500.00, -187500.02, -187500.02, -187500.02, -187500.02, 0.010, -0.052, 0.980, 21:27:13.252, 1592537233252
207, 15902.06, -187500.02, 187500.00, 187500.00, -187500.02, -187500.02, -187500.02, -187500.02, 0.000, 0.000, 0.000, 21:27:13.252, 1592537233252
208, 15890.15, -187500.02, 187500.00, 187500.00, -187500.02, -187500.02, -187500.02, -187500.02, 0.000, 0.000, 0.000, 21:27:13.252, 1592537233252
209, 15912.83, -187500.02, 187500.00, 187500.00, -187500.02, -187500.02, -187500.02, -187500.02, 0.000, 0.000, 0.000, 21:27:13.253, 1592537233253
210, 15899.04, -187500.02, 187500.00, 187500.00, -187500.02, -187500.02, -187500.02, -187500.02, 0.000, 0.000, 0.000, 21:27:13.266, 1592537233266
211, 15897.99, -187500.02, 187500.00, 187500.00, -187500.02, -187500.02, -187500.02, -187500.02, 0.000, 0.000, 0.000, 21:27:13.267, 1592537233267
212, 15917.10, -187500.02, 187500.00, 187500.00, -187500.02, -187500.02, -187500.02, -187500.02, 0.000, 0.000, 0.000, 21:27:13.267, 1592537233267
213, 15929.01, -187500.02, 187500.00, 187500.00, -187500.02, -187500.02, -187500.02, -187500.02, 0.000, 0.000, 0.000, 21:27:13.267, 1592537233267
214, 15926.98, -187500.02, 187500.00, 187500.00, -187500.02, -187500.02, -187500.02, -187500.02, 0.000, 0.000, 0.000, 21:27:13.282, 1592537233282
215, 15909.64, -187500.02, 187500.00, 187500.00, -187500.02, -187500.02, -187500.02, -187500.02, 0.000, 0.000, 0.000, 21:27:13.282, 1592537233282
216, 15908.92, -187500.02, 187500.00, 187500.00, -187500.02, -187500.02, -187500.02, -187500.02, 0.014, -0.052, 0.972, 21:27:13.282, 1592537233282
217, 15921.79, -187500.02, 187500.00, 187500.00, -187500.02, -187500.02, -187500.02, -187500.02, 0.000, 0.000, 0.000, 21:27:13.297, 1592537233297
218, 15927.25, -187500.02, 187500.00, 187500.00, -187500.02, -187500.02, -187500.02, -187500.02, 0.000, 0.000, 0.000, 21:27:13.298, 1592537233298
219, 15914.40, -187500.02, 187500.00, 187500.00, -187500.02, -187500.02, -187500.02, -187500.02, 0.000, 0.000, 0.000, 21:27:13.298, 1592537233298
220, 15888.67, -187500.02, 187500.00, 187500.00, -187500.02, -187500.02, -187500.02, -187500.02, 0.000, 0.000, 0.000, 21:27:13.298, 1592537233298
221, 15916.41, -187500.02, 187500.00, 187500.00, -187500.02, -187500.02, -187500.02, -187500.02, 0.000, 0.000, 0.000, 21:27:13.312, 1592537233312
222, 15937.98, -187500.02, 187500.00, 187500.00, -187500.02, -187500.02, -187500.02, -187500.02, 0.000, 0.000, 0.000, 21:27:13.312, 1592537233312
223, 15916.05, -187500.02, 187500.00, 187500.00, -187500.02, -187500.02, -187500.02, -187500.02, 0.000, 0.000, 0.000, 21:27:13.313, 1592537233313
224, 15911.16, -187500.02, 187500.00, 187500.00, -187500.02, -187500.02, -187500.02, -187500.02, 0.000, 0.000, 0.000, 21:27:13.313, 1592537233313
225, 15921.35, -187500.02, 187500.00, 187500.00, -187500.02, -187500.02, -187500.02, -187500.02, 0.000, 0.000, 0.000, 21:27:13.327, 1592537233327
226, 15929.77, -187500.02, 187500.00, 187500.00, -187500.02, -187500.02, -187500.02, -187500.02, 0.014, -0.044, 0.980, 21:27:13.328, 1592537233328
227, 15881.20, -187500.02, 187500.00, 187500.00, -187500.02, -187500.02, -187500.02, -187500.02, 0.000, 0.000, 0.000, 21:27:13.328, 1592537233328
228, 15886.99, -187500.02, 187500.00, 187500.00, -187500.02, -187500.02, -187500.02, -187500.02, 0.000, 0.000, 0.000, 21:27:13.328, 1592537233328
229, 15901.01, -187500.02, 187500.00, 187500.00, -187500.02, -187500.02, -187500.02, -187500.02, 0.000, 0.000, 0.000, 21:27:13.343, 1592537233343
230, 15914.62, -187500.02, 187500.00, 187500.00, -187500.02, -187500.02, -187500.02, -187500.02, 0.000, 0.000, 0.000, 21:27:13.343, 1592537233343
231, 15920.54, -187500.02, 187500.00, 187500.00, -187500.02, -187500.02, -187500.02, -187500.02, 0.000, 0.000, 0.000, 21:27:13.344, 1592537233344
232, 15916.41, -187500.02, 187500.00, 187500.00, -187500.02, -187500.02, -187500.02, -187500.02, 0.000, 0.000, 0.000, 21:27:13.357, 1592537233357
233, 15907.00, -187500.02, 187500.00, 187500.00, -187500.02, -187500.02, -187500.02, -187500.02, 0.000, 0.000, 0.000, 21:27:13.358, 1592537233358
234, 15904.34, -187500.02, 187500.00, 187500.00, -187500.02, -187500.02, -187500.02, -187500.02, 0.000, 0.000, 0.000, 21:27:13.359, 1592537233359
235, 15898.75, -187500.02, 187500.00, 187500.00, -187500.02, -187500.02, -187500.02, -187500.02, 0.010, -0.040, 0.974, 21:27:13.359, 1592537233359
236, 15881.74, -187500.02, 187500.00, 187500.00, -187500.02, -187500.02, -187500.02, -187500.02, 0.000, 0.000, 0.000, 21:27:13.373, 1592537233373
237, 15883.17, -187500.02, 187500.00, 187500.00, -187500.02, -187500.02, -187500.02, -187500.02, 0.000, 0.000, 0.000, 21:27:13.374, 1592537233374
238, 15902.55, -187500.02, 187500.00, 187500.00, -187500.02, -187500.02, -187500.02, -187500.02, 0.000, 0.000, 0.000, 21:27:13.374, 1592537233374
239, 15904.25, -187500.02, 187500.00, 187500.00, -187500.02, -187500.02, -187500.02, -187500.02, 0.000, 0.000, 0.000, 21:27:13.375, 1592537233375
240, 15909.35, -187500.02, 187500.00, 187500.00, -187500.02, -187500.02, -187500.02, -187500.02, 0.000, 0.000, 0.000, 21:27:13.387, 1592537233387
241, 15910.33, -187500.02, 187500.00, 187500.00, -187500.02, -187500.02, -187500.02, -187500.02, 0.000, 0.000, 0.000, 21:27:13.387, 1592537233387
242, 15915.89, -187500.02, 187500.00, 187500.00, -187500.02, -187500.02, -187500.02, -187500.02, 0.000, 0.000, 0.000, 21:27:13.388, 1592537233388
243, 15892.74, -187500.02, 187500.00, 187500.00, -187500.02, -187500.02, -187500.02, -187500.02, 0.000, 0.000, 0.000, 21:27:13.389, 1592537233389
244, 15880.18, -187500.02, 187500.00, 187500.00, -187500.02, -187500.02, -187500.02, -187500.02, 0.000, 0.000, 0.000, 21:27:13.403, 1592537233403
245, 15877.18, -187500.02, 187500.00, 187500.00, -187500.02, -187500.02, -187500.02, -187500.02, 0.012, -0.038, 0.970, 21:27:13.403, 1592537233403
246, 15887.57, -187500.02, 187500.00, 187500.00, -187500.02, -187500.02, -187500.02, -187500.02, 0.000, 0.000, 0.000, 21:27:13.403, 1592537233403
247, 15899.35, -187500.02, 187500.00, 187500.00, -187500.02, -187500.02, -187500.02, -187500.02, 0.000, 0.000, 0.000, 21:27:13.417, 1592537233417
248, 15892.98, -187500.02, 187500.00, 187500.00, -187500.02, -187500.02, -187500.02, -187500.02, 0.000, 0.000, 0.000, 21:27:13.417, 1592537233417
249, 15885.14, -187500.02, 187500.00, 187500.00, -187500.02, -187500.02, -187500.02, -187500.02, 0.000, 0.000, 0.000, 21:27:13.418, 1592537233418
250, 15904.96, -187500.02, 187500.00, 187500.00, -187500.02, -187500.02, -187500.02, -187500.02, 0.000, 0.000, 0.000, 21:27:13.418, 1592537233418
251, 15890.93, -187500.02, 187500.00, 187500.00, -187500.02, -187500.02, -187500.02, -187500.02, 0.000, 0.000, 0.000, 21:27:13.431, 1592537233431
252, 15882.39, -187500.02, 187500.00, 187500.00, -187500.02, -187500.02, -187500.02, -187500.02, 0.000, 0.000, 0.000, 21:27:13.431, 1592537233431
253, 15888.02, -187500.02, 187500.00, 187500.00, -187500.02, -187500.02, -187500.02, -187500.02, 0.000, 0.000, 0.000, 21:27:13.432, 1592537233432
254, 15912.16, -187500.02, 187500.00, 187500.00, -187500.02, -187500.02, -187500.02, -187500.02, 0.000, 0.000, 0.000, 21:27:13.432, 1592537233432
255, 15904.65, -187500.02, 187500.00, 187500.00, -187500.02, -187500.02, -187500.02, -187500.02, 0.012, -0.042, 0.970, 21:27:13.447, 1592537233447
0, 15891.49, -187500.02, 187500.00, 187500.00, -187500.02, -187500.02, -187500.02, -187500.02, 0.000, 0.000, 0.000, 21:27:13.447, 1592537233447
1, 15879.86, -187500.02, 187500.00, 187500.00, -187500.02, -187500.02, -187500.02, -187500.02, 0.000, 0.000, 0.000, 21:27:13.447, 1592537233447
2, 15885.27, -187500.02, 187500.00, 187500.00, -187500.02, -187500.02, -187500.02, -187500.02, 0.000, 0.000, 0.000, 21:27:13.447, 1592537233447
3, 15908.27, -187500.02, 187500.00, 187500.00, -187500.02, -187500.02, -187500.02, -187500.02, 0.000, 0.000, 0.000, 21:27:13.461, 1592537233461
4, 15898.48, -187500.02, 187500.00, 187500.00, -187500.02, -187500.02, -187500.02, -187500.02, 0.000, 0.000, 0.000, 21:27:13.462, 1592537233462
5, 15876.91, -187500.02, 187500.00, 187500.00, -187500.02, -187500.02, -187500.02, -187500.02, 0.000, 0.000, 0.000, 21:27:13.462, 1592537233462
6, 15895.42, -187500.02, 187500.00, 187500.00, -187500.02, -187500.02, -187500.02, -187500.02, 0.000, 0.000, 0.000, 21:27:13.462, 1592537233462
7, 15905.19, -187500.02, 187500.00, 187500.00, -187500.02, -187500.02, -187500.02, -187500.02, 0.000, 0.000, 0.000, 21:27:13.479, 1592537233479
8, 15892.04, -187500.02, 187500.00, 187500.00, -187500.02, -187500.02, -187500.02, -187500.02, 0.000, 0.000, 0.000, 21:27:13.479, 1592537233479
9, 15878.92, -187500.02, 187500.00, 187500.00, -187500.02, -187500.02, -187500.02, -187500.02, 0.012, -0.044, 0.976, 21:27:13.479, 1592537233479
10, 15889.14, -187500.02, 187500.00, 187500.00, -187500.02, -187500.02, -187500.02, -187500.02, 0.000, 0.000, 0.000, 21:27:13.492, 1592537233492
11, 15914.87, -187500.02, 187500.00, 187500.00, -187500.02, -187500.02, -187500.02, -187500.02, 0.000, 0.000, 0.000, 21:27:13.492, 1592537233492
12, 15894.24, -187500.02, 187500.00, 187500.00, -187500.02, -187500.02, -187500.02, -187500.02, 0.000, 0.000, 0.000, 21:27:13.493, 1592537233493
13, 15865.40, -187500.02, 187500.00, 187500.00, -187500.02, -187500.02, -187500.02, -187500.02, 0.000, 0.000, 0.000, 21:27:13.494, 1592537233494
14, 15877.00, -187500.02, 187500.00, 187500.00, -187500.02, -187500.02, -187500.02, -187500.02, 0.000, 0.000, 0.000, 21:27:13.509, 1592537233509
15, 15897.75, -187500.02, 187500.00, 187500.00, -187500.02, -187500.02, -187500.02, -187500.02, 0.000, 0.000, 0.000, 21:27:13.509, 1592537233509
16, 15900.02, -187500.02, 187500.00, 187500.00, -187500.02, -187500.02, -187500.02, -187500.02, 0.000, 0.000, 0.000, 21:27:13.509, 1592537233509
17, 15881.94, -187500.02, 187500.00, 187500.00, -187500.02, -187500.02, -187500.02, -187500.02, 0.000, 0.000, 0.000, 21:27:13.509, 1592537233509
18, 15875.73, -187500.02, 187500.00, 187500.00, -187500.02, -187500.02, -187500.02, -187500.02, 0.000, 0.000, 0.000, 21:27:13.523, 1592537233523
19, 15890.44, -187500.02, 187500.00, 187500.00, -187500.02, -187500.02, -187500.02, -187500.02, 0.012, -0.048, 0.978, 21:27:13.524, 1592537233524
20, 15889.54, -187500.02, 187500.00, 187500.00, -187500.02, -187500.02, -187500.02, -187500.02, 0.000, 0.000, 0.000, 21:27:13.525, 1592537233525
21, 15892.51, -187500.02, 187500.00, 187500.00, -187500.02, -187500.02, -187500.02, -187500.02, 0.000, 0.000, 0.000, 21:27:13.525, 1592537233525
22, 15891.82, -187500.02, 187500.00, 187500.00, -187500.02, -187500.02, -187500.02, -187500.02, 0.000, 0.000, 0.000, 21:27:13.538, 1592537233538
23, 15904.34, -187500.02, 187500.00, 187500.00, -187500.02, -187500.02, -187500.02, -187500.02, 0.000, 0.000, 0.000, 21:27:13.539, 1592537233539
24, 15908.50, -187500.02, 187500.00, 187500.00, -187500.02, -187500.02, -187500.02, -187500.02, 0.000, 0.000, 0.000, 21:27:13.539, 1592537233539
25, 15907.65, -187500.02, 187500.00, 187500.00, -187500.02, -187500.02, -187500.02, -187500.02, 0.000, 0.000, 0.000, 21:27:13.552, 1592537233552
26, 15902.24, -187500.02, 187500.00, 187500.00, -187500.02, -187500.02, -187500.02, -187500.02, 0.000, 0.000, 0.000, 21:27:13.553, 1592537233553
27, 15899.76, -187500.02, 187500.00, 187500.00, -187500.02, -187500.02, -187500.02, -187500.02, 0.000, 0.000, 0.000, 21:27:13.553, 1592537233553
28, 15902.10, -187500.02, 187500.00, 187500.00, -187500.02, -187500.02, -187500.02, -187500.02, 0.000, 0.000, 0.000, 21:27:13.553, 1592537233553
29, 15906.62, -187500.02, 187500.00, 187500.00, -187500.02, -187500.02, -187500.02, -187500.02, 0.008, -0.040, 0.978, 21:27:13.567, 1592537233567
30, 15907.69, -187500.02, 187500.00, 187500.00, -187500.02, -187500.02, -187500.02, -187500.02, 0.000, 0.000, 0.000, 21:27:13.567, 1592537233567
31, 15922.02, -187500.02, 187500.00, 187500.00, -187500.02, -187500.02, -187500.02, -187500.02, 0.000, 0.000, 0.000, 21:27:13.567, 1592537233567
32, 15910.51, -187500.02, 187500.00, 187500.00, -187500.02, -187500.02, -187500.02, -187500.02, 0.000, 0.000, 0.000, 21:27:13.567, 1592537233567
33, 15902.26, -187500.02, 187500.00, 187500.00, -187500.02, -187500.02, -187500.02, -187500.02, 0.000, 0.000, 0.000, 21:27:13.582, 1592537233582
34, 15883.69, -187500.02, 187500.00, 187500.00, -187500.02, -187500.02, -187500.02, -187500.02, 0.000, 0.000, 0.000, 21:27:13.582, 1592537233582
35, 15893.27, -187500.02, 187500.00, 187500.00, -187500.02, -187500.02, -187500.02, -187500.02, 0.000, 0.000, 0.000, 21:27:13.583, 1592537233583
36, 15911.83, -187500.02, 187500.00, 187500.00, -187500.02, -187500.02, -187500.02, -187500.02, 0.000, 0.000, 0.000, 21:27:13.583, 1592537233583
37, 15922.73, -187500.02, 187500.00, 187500.00, -187500.02, -187500.02, -187500.02, -187500.02, 0.000, 0.000, 0.000, 21:27:13.596, 1592537233596
38, 15890.73, -187500.02, 187500.00, 187500.00, -187500.02, -187500.02, -187500.02, -187500.02, 0.000, 0.000, 0.000, 21:27:13.597, 1592537233597
39, 15888.49, -187500.02, 187500.00, 187500.00, -187500.02, -187500.02, -187500.02, -187500.02, 0.014, -0.044, 0.976, 21:27:13.597, 1592537233597
40, 15896.07, -187500.02, 187500.00, 187500.00, -187500.02, -187500.02, -187500.02, -187500.02, 0.000, 0.000, 0.000, 21:27:13.612, 1592537233612
41, 15895.80, -187500.02, 187500.00, 187500.00, -187500.02, -187500.02, -187500.02, -187500.02, 0.000, 0.000, 0.000, 21:27:13.612, 1592537233612
42, 15890.32, -187500.02, 187500.00, 187500.00, -187500.02, -187500.02, -187500.02, -187500.02, 0.000, 0.000, 0.000, 21:27:13.613, 1592537233613
43, 15890.64, -187500.02, 187500.00, 187500.00, -187500.02, -187500.02, -187500.02, -187500.02, 0.000, 0.000, 0.000, 21:27:13.613, 1592537233613
44, 15899.73, -187500.02, 187500.00, 187500.00, -187500.02, -187500.02, -187500.02, -187500.02, 0.000, 0.000, 0.000, 21:27:13.628, 1592537233628
45, 15912.54, -187500.02, 187500.00, 187500.00, -187500.02, -187500.02, -187500.02, -187500.02, 0.000, 0.000, 0.000, 21:27:13.629, 1592537233629
46, 15902.01, -187500.02, 187500.00, 187500.00, -187500.02, -187500.02, -187500.02, -187500.02, 0.000, 0.000, 0.000, 21:27:13.630, 1592537233630
47, 15893.50, -187500.02, 187500.00, 187500.00, -187500.02, -187500.02, -187500.02, -187500.02, 0.000, 0.000, 0.000, 21:27:13.630, 1592537233630
48, 15888.04, -187500.02, 187500.00, 187500.00, -187500.02, -187500.02, -187500.02, -187500.02, 0.000, 0.000, 0.000, 21:27:13.642, 1592537233642
49, 15887.24, -187500.02, 187500.00, 187500.00, -187500.02, -187500.02, -187500.02, -187500.02, 0.010, -0.038, 0.970, 21:27:13.643, 1592537233643
50, 15888.69, -187500.02, 187500.00, 187500.00, -187500.02, -187500.02, -187500.02, -187500.02, 0.000, 0.000, 0.000, 21:27:13.643, 1592537233643
51, 15901.72, -187500.02, 187500.00, 187500.00, -187500.02, -187500.02, -187500.02, -187500.02, 0.000, 0.000, 0.000, 21:27:13.643, 1592537233643
52, 15902.57, -187500.02, 187500.00, 187500.00, -187500.02, -187500.02, -187500.02, -187500.02, 0.000, 0.000, 0.000, 21:27:13.657, 1592537233657
53, 15900.23, -187500.02, 187500.00, 187500.00, -187500.02, -187500.02, -187500.02, -187500.02, 0.000, 0.000, 0.000, 21:27:13.657, 1592537233657
54, 15883.57, -187500.02, 187500.00, 187500.00, -187500.02, -187500.02, -187500.02, -187500.02, 0.000, 0.000, 0.000, 21:27:13.657, 1592537233657
55, 15881.41, -187500.02, 187500.00, 187500.00, -187500.02, -187500.02, -187500.02, -187500.02, 0.000, 0.000, 0.000, 21:27:13.673, 1592537233673
56, 15897.97, -187500.02, 187500.00, 187500.00, -187500.02, -187500.02, -187500.02, -187500.02, 0.000, 0.000, 0.000, 21:27:13.674, 1592537233674
57, 15904.18, -187500.02, 187500.00, 187500.00, -187500.02, -187500.02, -187500.02, -187500.02, 0.000, 0.000, 0.000, 21:27:13.674, 1592537233674
58, 15903.11, -187500.02, 187500.00, 187500.00, -187500.02, -187500.02, -187500.02, -187500.02, 0.010, -0.036, 0.972, 21:27:13.675, 1592537233675
59, 15892.94, -187500.02, 187500.00, 187500.00, -187500.02, -187500.02, -187500.02, -187500.02, 0.000, 0.000, 0.000, 21:27:13.688, 1592537233688
60, 15890.17, -187500.02, 187500.00, 187500.00, -187500.02, -187500.02, -187500.02, -187500.02, 0.000, 0.000, 0.000, 21:27:13.689, 1592537233689
61, 15906.69, -187500.02, 187500.00, 187500.00, -187500.02, -187500.02, -187500.02, -187500.02, 0.000, 0.000, 0.000, 21:27:13.689, 1592537233689
62, 15878.10, -187500.02, 187500.00, 187500.00, -187500.02, -187500.02, -187500.02, -187500.02, 0.000, 0.000, 0.000, 21:27:13.690, 1592537233690
63, 15859.37, -187500.02, 187500.00, 187500.00, -187500.02, -187500.02, -187500.02, -187500.02, 0.000, 0.000, 0.000, 21:27:13.702, 1592537233702
64, 15866.25, -187500.02, 187500.00, 187500.00, -187500.02, -187500.02, -187500.02, -187500.02, 0.000, 0.000, 0.000, 21:27:13.702, 1592537233702
65, 15878.83, -187500.02, 187500.00, 187500.00, -187500.02, -187500.02, -187500.02, -187500.02, 0.000, 0.000, 0.000, 21:27:13.702, 1592537233702
66, 15898.97, -187500.02, 187500.00, 187500.00, -187500.02, -187500.02, -187500.02, -187500.02, 0.000, 0.000, 0.000, 21:27:13.703, 1592537233703
67, 15887.08, -187500.02, 187500.00, 187500.00, -187500.02, -187500.02, -187500.02, -187500.02, 0.000, 0.000, 0.000, 21:27:13.716, 1592537233716
68, 15883.31, -187500.02, 187500.00, 187500.00, -187500.02, -187500.02, -187500.02, -187500.02, 0.010, -0.038, 0.972, 21:27:13.717, 1592537233717
69, 15891.55, -187500.02, 187500.00, 187500.00, -187500.02, -187500.02, -187500.02, -187500.02, 0.000, 0.000, 0.000, 21:27:13.717, 1592537233717
70, 15911.87, -187500.02, 187500.00, 187500.00, -187500.02, -187500.02, -187500.02, -187500.02, 0.000, 0.000, 0.000, 21:27:13.734, 1592537233734
71, 15905.46, -187500.02, 187500.00, 187500.00, -187500.02, -187500.02, -187500.02, -187500.02, 0.000, 0.000, 0.000, 21:27:13.736, 1592537233736
72, 15885.85, -187500.02, 187500.00, 187500.00, -187500.02, -187500.02, -187500.02, -187500.02, 0.000, 0.000, 0.000, 21:27:13.736, 1592537233736
73, 15902.24, -187500.02, 187500.00, 187500.00, -187500.02, -187500.02, -187500.02, -187500.02, 0.000, 0.000, 0.000, 21:27:13.737, 1592537233737
74, 15912.81, -187500.02, 187500.00, 187500.00, -187500.02, -187500.02, -187500.02, -187500.02, 0.000, 0.000, 0.000, 21:27:13.748, 1592537233748
75, 15907.60, -187500.02, 187500.00, 187500.00, -187500.02, -187500.02, -187500.02, -187500.02, 0.000, 0.000, 0.000, 21:27:13.749, 1592537233749
76, 15892.31, -187500.02, 187500.00, 187500.00, -187500.02, -187500.02, -187500.02, -187500.02, 0.000, 0.000, 0.000, 21:27:13.749, 1592537233749
77, 15909.68, -187500.02, 187500.00, 187500.00, -187500.02, -187500.02, -187500.02, -187500.02, 0.000, 0.000, 0.000, 21:27:13.750, 1592537233750
78, 15928.50, -187500.02, 187500.00, 187500.00, -187500.02, -187500.02, -187500.02, -187500.02, 0.016, -0.040, 0.974, 21:27:13.763, 1592537233763
79, 15915.02, -187500.02, 187500.00, 187500.00, -187500.02, -187500.02, -187500.02, -187500.02, 0.000, 0.000, 0.000, 21:27:13.763, 1592537233763
80, 15906.51, -187500.02, 187500.00, 187500.00, -187500.02, -187500.02, -187500.02, -187500.02, 0.000, 0.000, 0.000, 21:27:13.763, 1592537233763
81, 15889.61, -187500.02, 187500.00, 187500.00, -187500.02, -187500.02, -187500.02, -187500.02, 0.000, 0.000, 0.000, 21:27:13.763, 1592537233763
82, 15898.33, -187500.02, 187500.00, 187500.00, -187500.02, -187500.02, -187500.02, -187500.02, 0.000, 0.000, 0.000, 21:27:13.777, 1592537233777
83, 15903.20, -187500.02, 187500.00, 187500.00, -187500.02, -187500.02, -187500.02, -187500.02, 0.000, 0.000, 0.000, 21:27:13.777, 1592537233777
84, 15898.62, -187500.02, 187500.00, 187500.00, -187500.02, -187500.02, -187500.02, -187500.02, 0.000, 0.000, 0.000, 21:27:13.777, 1592537233777
85, 15907.49, -187500.02, 187500.00, 187500.00, -187500.02, -187500.02, -187500.02, -187500.02, 0.000, 0.000, 0.000, 21:27:13.791, 1592537233791
86, 15925.57, -187500.02, 187500.00, 187500.00, -187500.02, -187500.02, -187500.02, -187500.02, 0.000, 0.000, 0.000, 21:27:13.792, 1592537233792
87, 15925.39, -187500.02, 187500.00, 187500.00, -187500.02, -187500.02, -187500.02, -187500.02, 0.000, 0.000, 0.000, 21:27:13.792, 1592537233792
88, 15908.23, -187500.02, 187500.00, 187500.00, -187500.02, -187500.02, -187500.02, -187500.02, 0.018, -0.042, 0.972, 21:27:13.792, 1592537233792
89, 15890.17, -187500.02, 187500.00, 187500.00, -187500.02, -187500.02, -187500.02, -187500.02, 0.000, 0.000, 0.000, 21:27:13.809, 1592537233809
90, 15908.92, -187500.02, 187500.00, 187500.00, -187500.02, -187500.02, -187500.02, -187500.02, 0.000, 0.000, 0.000, 21:27:13.809, 1592537233809
91, 15922.06, -187500.02, 187500.00, 187500.00, -187500.02, -187500.02, -187500.02, -187500.02, 0.000, 0.000, 0.000, 21:27:13.810, 1592537233810
92, 15915.83, -187500.02, 187500.00, 187500.00, -187500.02, -187500.02, -187500.02, -187500.02, 0.000, 0.000, 0.000, 21:27:13.810, 1592537233810
93, 15915.87, -187500.02, 187500.00, 187500.00, -187500.02, -187500.02, -187500.02, -187500.02, 0.000, 0.000, 0.000, 21:27:13.823, 1592537233823
94, 15913.95, -187500.02, 187500.00, 187500.00, -187500.02, -187500.02, -187500.02, -187500.02, 0.000, 0.000, 0.000, 21:27:13.824, 1592537233824
95, 15919.38, -187500.02, 187500.00, 187500.00, -187500.02, -187500.02, -187500.02, -187500.02, 0.000, 0.000, 0.000, 21:27:13.824, 1592537233824
96, 15900.27, -187500.02, 187500.00, 187500.00, -187500.02, -187500.02, -187500.02, -187500.02, 0.000, 0.000, 0.000, 21:27:13.824, 1592537233824
97, 15896.38, -187500.02, 187500.00, 187500.00, -187500.02, -187500.02, -187500.02, -187500.02, 0.000, 0.000, 0.000, 21:27:13.837, 1592537233837
