%OpenBCI Raw EEG Data
%Number of channels = 8
%Sample Rate = 250.0 Hz
%First Column = SampleIndex
%Last Column = Timestamp 
%Other Columns = EEG data in microvolts followed by Accel Data (in G) interleaved with Aux Data
0, 0.00, 0.00, 0.00, 0.00, 0.00, 0.00, 0.00, 0.00, 0.014, -0.046, 0.972, 21:30:54.197, 1592537454197
1, 16884.08, 44052.02, 187500.00, 187500.00, -187500.02, -187500.02, -187500.02, -187500.02, 0.000, 0.000, 0.000, 21:30:54.220, 1592537454220
2, 16880.39, 44043.17, 187500.00, 187500.00, -187500.02, -187500.02, -187500.02, -187500.02, 0.000, 0.000, 0.000, 21:30:54.220, 1592537454220
3, 16866.67, 44034.81, 187500.00, 187500.00, -187500.02, -187500.02, -187500.02, -187500.02, 0.000, 0.000, 0.000, 21:30:54.220, 1592537454220
4, 16868.32, 44038.88, 187500.00, 187500.00, -187500.02, -187500.02, -187500.02, -187500.02, 0.000, 0.000, 0.000, 21:30:54.236, 1592537454236
5, 16854.04, 44020.11, 187500.00, 187500.00, -187500.02, -187500.02, -187500.02, -187500.02, 0.000, 0.000, 0.000, 21:30:54.236, 1592537454236
6, 16858.51, 44015.01, 187500.00, 187500.00, -187500.02, -187500.02, -187500.02, -187500.02, 0.000, 0.000, 0.000, 21:30:54.236, 1592537454236
7, 16863.41, 44016.82, 187500.00, 187500.00, -187500.02, -187500.02, -187500.02, -187500.02, 0.000, 0.000, 0.000, 21:30:54.236, 1592537454236
8, 16866.16, 44024.31, 187500.00, 187500.00, -187500.02, -187500.02, -187500.02, -187500.02, 0.010, -0.042, 0.974, 21:30:54.250, 1592537454250
9, 16871.10, 44033.76, 187500.00, 187500.00, -187500.02, -187500.02, -187500.02, -187500.02, 0.000, 0.000, 0.000, 21:30:54.250, 1592537454250
10, 16868.95, 44027.32, 187500.00, 187500.00, -187500.02, -187500.02, -187500.02, -187500.02, 0.000, 0.000, 0.000, 21:30:54.250, 1592537454250
11, 16862.74, 44017.64, 187500.00, 187500.00, -187500.02, -187500.02, -187500.02, -187500.02, 0.000, 0.000, 0.000, 21:30:54.251, 1592537454251
12, 16878.23, 44035.04, 187500.00, 187500.00, -187500.02, -187500.02, -187500.02, -187500.02, 0.000, 0.000, 0.000, 21:30:54.265, 1592537454265
13, 16884.64, 44038.77, 187500.00, 187500.00, -187500.02, -187500.02, -187500.02, -187500.02, 0.000, 0.000, 0.000, 21:30:54.265, 1592537454265
14, 16881.40, 44030.25, 187500.00, 187500.00, -187500.02, -187500.02, -187500.02, -187500.02, 0.000, 0.000, 0.000, 21:30:54.265, 1592537454265
15, 16879.01, 44021.27, 187500.00, 187500.00, -187500.02, -187500.02, -187500.02, -187500.02, 0.000, 0.000, 0.000, 21:30:54.266, 1592537454266
16, 16873.53, 44011.90, 187500.00, 187500.00, -187500.02, -187500.02, -187500.02, -187500.02, 0.000, 0.000, 0.000, 21:30:54.281, 1592537454281
17, 16867.65, 44005.06, 187500.00, 187500.00, -187500.02, -187500.02, -187500.02, -187500.02, 0.012, -0.042, 0.972, 21:30:54.281, 1592537454281
18, 16870.49, 44004.66, 187500.00, 187500.00, -187500.02, -187500.02, -187500.02, -187500.02, 0.000, 0.000, 0.000, 21:30:54.281, 1592537454281
19, 16866.92, 44002.18, 187500.00, 187500.00, -187500.02, -187500.02, -187500.02, -187500.02, 0.000, 0.000, 0.000, 21:30:54.296, 1592537454296
20, 16861.06, 44001.93, 187500.00, 187500.00, -187500.02, -187500.02, -187500.02, -187500.02, 0.000, 0.000, 0.000, 21:30:54.297, 1592537454297
21, 16867.52, 44007.21, 187500.00, 187500.00, -187500.02, -187500.02, -187500.02, -187500.02, 0.000, 0.000, 0.000, 21:30:54.297, 1592537454297
22, 16868.62, 44004.53, 187500.00, 187500.00, -187500.02, -187500.02, -187500.02, -187500.02, 0.000, 0.000, 0.000, 21:30:54.297, 1592537454297
23, 16858.56, 43994.63, 187500.00, 187500.00, -187500.02, -187500.02, -187500.02, -187500.02, 0.000, 0.000, 0.000, 21:30:54.312, 1592537454312
24, 16861.84, 44001.93, 187500.00, 187500.00, -187500.02, -187500.02, -187500.02, -187500.02, 0.000, 0.000, 0.000, 21:30:54.312, 1592537454312
25, 16862.13, 43999.74, 187500.00, 187500.00, -187500.02, -187500.02, -187500.02, -187500.02, 0.000, 0.000, 0.000, 21:30:54.313, 1592537454313
26, 16870.40, 44000.48, 187500.00, 187500.00, -187500.02, -187500.02, -187500.02, -187500.02, 0.000, 0.000, 0.000, 21:30:54.313, 1592537454313
27, 16884.02, 44012.21, 187500.00, 187500.00, -187500.02, -187500.02, -187500.02, -187500.02, 0.008, -0.046, 0.970, 21:30:54.327, 1592537454327
28, 16877.87, 44006.96, 187500.00, 187500.00, -187500.02, -187500.02, -187500.02, -187500.02, 0.000, 0.000, 0.000, 21:30:54.328, 1592537454328
29, 16870.16, 44000.48, 187500.00, 187500.00, -187500.02, -187500.02, -187500.02, -187500.02, 0.000, 0.000, 0.000, 21:30:54.329, 1592537454329
30, 16877.71, 44006.02, 187500.00, 187500.00, -187500.02, -187500.02, -187500.02, -187500.02, 0.000, 0.000, 0.000, 21:30:54.329, 1592537454329
31, 16881.58, 44009.11, 187500.00, 187500.00, -187500.02, -187500.02, -187500.02, -187500.02, 0.000, 0.000, 0.000, 21:30:54.341, 1592537454341
32, 16877.49, 44000.44, 187500.00, 187500.00, -187500.02, -187500.02, -187500.02, -187500.02, 0.000, 0.000, 0.000, 21:30:54.342, 1592537454342
33, 16883.14, 44003.86, 187500.00, 187500.00, -187500.02, -187500.02, -187500.02, -187500.02, 0.000, 0.000, 0.000, 21:30:54.342, 1592537454342
34, 16874.07, 43994.89, 187500.00, 187500.00, -187500.02, -187500.02, -187500.02, -187500.02, 0.000, 0.000, 0.000, 21:30:54.355, 1592537454355
35, 16866.92, 43989.04, 187500.00, 187500.00, -187500.02, -187500.02, -187500.02, -187500.02, 0.000, 0.000, 0.000, 21:30:54.355, 1592537454355
36, 16855.36, 43978.38, 187500.00, 187500.00, -187500.02, -187500.02, -187500.02, -187500.02, 0.000, 0.000, 0.000, 21:30:54.355, 1592537454355
37, 16859.65, 43976.83, 187500.00, 187500.00, -187500.02, -187500.02, -187500.02, -187500.02, 0.012, -0.044, 0.968, 21:30:54.356, 1592537454356
38, 16873.96, 43985.62, 187500.00, 187500.00, -187500.02, -187500.02, -187500.02, -187500.02, 0.000, 0.000, 0.000, 21:30:54.371, 1592537454371
39, 16874.18, 43987.70, 187500.00, 187500.00, -187500.02, -187500.02, -187500.02, -187500.02, 0.000, 0.000, 0.000, 21:30:54.371, 1592537454371
40, 16876.66, 43983.79, 187500.00, 187500.00, -187500.02, -187500.02, -187500.02, -187500.02, 0.000, 0.000, 0.000, 21:30:54.371, 1592537454371
41, 16871.14, 43980.65, 187500.00, 187500.00, -187500.02, -187500.02, -187500.02, -187500.02, 0.000, 0.000, 0.000, 21:30:54.371, 1592537454371
42, 16871.97, 43982.44, 187500.00, 187500.00, -187500.02, -187500.02, -187500.02, -187500.02, 0.000, 0.000, 0.000, 21:30:54.385, 1592537454385
43, 16881.45, 43990.02, 187500.00, 187500.00, -187500.02, -187500.02, -187500.02, -187500.02, 0.000, 0.000, 0.000, 21:30:54.385, 1592537454385
44, 16877.51, 43983.96, 187500.00, 187500.00, -187500.02, -187500.02, -187500.02, -187500.02, 0.000, 0.000, 0.000, 21:30:54.386, 1592537454386
45, 16876.91, 43982.00, 187500.00, 187500.00, -187500.02, -187500.02, -187500.02, -187500.02, 0.000, 0.000, 0.000, 21:30:54.386, 1592537454386
46, 16879.72, 43985.59, 187500.00, 187500.00, -187500.02, -187500.02, -187500.02, -187500.02, 0.000, 0.000, 0.000, 21:30:54.400, 1592537454400
47, 16869.04, 43974.44, 187500.00, 187500.00, -187500.02, -187500.02, -187500.02, -187500.02, 0.014, -0.040, 0.974, 21:30:54.401, 1592537454401
48, 16862.89, 43960.94, 187500.00, 187500.00, -187500.02, -187500.02, -187500.02, -187500.02, 0.000, 0.000, 0.000, 21:30:54.401, 1592537454401
49, 16874.96, 43972.88, 187500.00, 187500.00, -187500.02, -187500.02, -187500.02, -187500.02, 0.000, 0.000, 0.000, 21:30:54.415, 1592537454415
50, 16884.84, 43988.03, 187500.00, 187500.00, -187500.02, -187500.02, -187500.02, -187500.02, 0.000, 0.000, 0.000, 21:30:54.415, 1592537454415
51, 16877.89, 43984.72, 187500.00, 187500.00, -187500.02, -187500.02, -187500.02, -187500.02, 0.000, 0.000, 0.000, 21:30:54.415, 1592537454415
52, 16869.49, 43971.73, 187500.00, 187500.00, -187500.02, -187500.02, -187500.02, -187500.02, 0.000, 0.000, 0.000, 21:30:54.415, 1592537454415
53, 16863.97, 43962.04, 187500.00, 187500.00, -187500.02, -187500.02, -187500.02, -187500.02, 0.000, 0.000, 0.000, 21:30:54.431, 1592537454431
54, 16874.56, 43973.17, 187500.00, 187500.00, -187500.02, -187500.02, -187500.02, -187500.02, 0.000, 0.000, 0.000, 21:30:54.432, 1592537454432
55, 16877.38, 43969.66, 187500.00, 187500.00, -187500.02, -187500.02, -187500.02, -187500.02, 0.000, 0.000, 0.000, 21:30:54.432, 1592537454432
56, 16878.76, 43961.95, 187500.00, 187500.00, -187500.02, -187500.02, -187500.02, -187500.02, 0.000, 0.000, 0.000, 21:30:54.432, 1592537454432
57, 16863.68, 43954.95, 187500.00, 187500.00, -187500.02, -187500.02, -187500.02, -187500.02, 0.016, -0.044, 0.974, 21:30:54.447, 1592537454447
58, 16872.62, 43972.18, 187500.00, 187500.00, -187500.02, -187500.02, -187500.02, -187500.02, 0.000, 0.000, 0.000, 21:30:54.447, 1592537454447
59, 16865.55, 43966.75, 187500.00, 187500.00, -187500.02, -187500.02, -187500.02, -187500.02, 0.000, 0.000, 0.000, 21:30:54.447, 1592537454447
60, 16862.58, 43960.67, 187500.00, 187500.00, -187500.02, -187500.02, -187500.02, -187500.02, 0.000, 0.000, 0.000, 21:30:54.447, 1592537454447
61, 16867.25, 43956.94, 187500.00, 187500.00, -187500.02, -187500.02, -187500.02, -187500.02, 0.000, 0.000, 0.000, 21:30:54.460, 1592537454460
62, 16871.83, 43962.71, 187500.00, 187500.00, -187500.02, -187500.02, -187500.02, -187500.02, 0.000, 0.000, 0.000, 21:30:54.461, 1592537454461
63, 16875.75, 43968.38, 187500.00, 187500.00, -187500.02, -187500.02, -187500.02, -187500.02, 0.000, 0.000, 0.000, 21:30:54.462, 1592537454462
64, 16882.03, 43970.11, 187500.00, 187500.00, -187500.02, -187500.02, -187500.02, -187500.02, 0.000, 0.000, 0.000, 21:30:54.476, 1592537454476
65, 16882.45, 43969.77, 187500.00, 187500.00, -187500.02, -187500.02, -187500.02, -187500.02, 0.000, 0.000, 0.000, 21:30:54.477, 1592537454477
66, 16878.29, 43963.89, 187500.00, 187500.00, -187500.02, -187500.02, -187500.02, -187500.02, 0.000, 0.000, 0.000, 21:30:54.478, 1592537454478
67, 16874.47, 43964.00, 187500.00, 187500.00, -187500.02, -187500.02, -187500.02, -187500.02, 0.022, -0.040, 0.968, 21:30:54.479, 1592537454479
68, 16868.10, 43965.12, 187500.00, 187500.00, -187500.02, -187500.02, -187500.02, -187500.02, 0.000, 0.000, 0.000, 21:30:54.491, 1592537454491
69, 16865.24, 43960.58, 187500.00, 187500.00, -187500.02, -187500.02, -187500.02, -187500.02, 0.000, 0.000, 0.000, 21:30:54.491, 1592537454491
70, 16881.51, 43977.19, 187500.00, 187500.00, -187500.02, -187500.02, -187500.02, -187500.02, 0.000, 0.000, 0.000, 21:30:54.492, 1592537454492
71, 16863.41, 43952.09, 187500.00, 187500.00, -187500.02, -187500.02, -187500.02, -187500.02, 0.000, 0.000, 0.000, 21:30:54.492, 1592537454492
72, 16864.95, 43954.68, 187500.00, 187500.00, -187500.02, -187500.02, -187500.02, -187500.02, 0.000, 0.000, 0.000, 21:30:54.507, 1592537454507
73, 16861.89, 43955.96, 187500.00, 187500.00, -187500.02, -187500.02, -187500.02, -187500.02, 0.000, 0.000, 0.000, 21:30:54.507, 1592537454507
74, 16866.49, 43952.98, 187500.00, 187500.00, -187500.02, -187500.02, -187500.02, -187500.02, 0.000, 0.000, 0.000, 21:30:54.507, 1592537454507
75, 16868.73, 43952.45, 187500.00, 187500.00, -187500.02, -187500.02, -187500.02, -187500.02, 0.000, 0.000, 0.000, 21:30:54.507, 1592537454507
76, 16866.49, 43951.13, 187500.00, 187500.00, -187500.02, -187500.02, -187500.02, -187500.02, 0.000, 0.000, 0.000, 21:30:54.520, 1592537454520
77, 16867.14, 43951.48, 187500.00, 187500.00, -187500.02, -187500.02, -187500.02, -187500.02, 0.014, -0.044, 0.970, 21:30:54.520, 1592537454520
78, 16863.85, 43950.75, 187500.00, 187500.00, -187500.02, -187500.02, -187500.02, -187500.02, 0.000, 0.000, 0.000, 21:30:54.520, 1592537454520
79, 16860.26, 43945.16, 187500.00, 187500.00, -187500.02, -187500.02, -187500.02, -187500.02, 0.000, 0.000, 0.000, 21:30:54.536, 1592537454536
80, 16860.48, 43944.40, 187500.00, 187500.00, -187500.02, -187500.02, -187500.02, -187500.02, 0.000, 0.000, 0.000, 21:30:54.536, 1592537454536
81, 16872.21, 43953.21, 187500.00, 187500.00, -187500.02, -187500.02, -187500.02, -187500.02, 0.000, 0.000, 0.000, 21:30:54.536, 1592537454536
82, 16866.04, 43942.07, 187500.00, 187500.00, -187500.02, -187500.02, -187500.02, -187500.02, 0.000, 0.000, 0.000, 21:30:54.536, 1592537454536
83, 16852.05, 43932.66, 187500.00, 187500.00, -187500.02, -187500.02, -187500.02, -187500.02, 0.000, 0.000, 0.000, 21:30:54.550, 1592537454550
84, 16850.33, 43927.17, 187500.00, 187500.00, -187500.02, -187500.02, -187500.02, -187500.02, 0.000, 0.000, 0.000, 21:30:54.550, 1592537454550
85, 16847.94, 43918.45, 187500.00, 187500.00, -187500.02, -187500.02, -187500.02, -187500.02, 0.000, 0.000, 0.000, 21:30:54.550, 1592537454550
86, 16847.83, 43922.76, 187500.00, 187500.00, -187500.02, -187500.02, -187500.02, -187500.02, 0.000, 0.000, 0.000, 21:30:54.550, 1592537454550
87, 16851.52, 43930.52, 187500.00, 187500.00, -187500.02, -187500.02, -187500.02, -187500.02, 0.020, -0.042, 0.968, 21:30:54.565, 1592537454565
88, 16857.95, 43935.35, 187500.00, 187500.00, -187500.02, -187500.02, -187500.02, -187500.02, 0.000, 0.000, 0.000, 21:30:54.566, 1592537454566
89, 16861.84, 43939.10, 187500.00, 187500.00, -187500.02, -187500.02, -187500.02, -187500.02, 0.000, 0.000, 0.000, 21:30:54.566, 1592537454566
90, 16866.58, 43935.06, 187500.00, 187500.00, -187500.02, -187500.02, -187500.02, -187500.02, 0.000, 0.000, 0.000, 21:30:54.566, 1592537454566
91, 16848.37, 43909.09, 187500.00, 187500.00, -187500.02, -187500.02, -187500.02, -187500.02, 0.000, 0.000, 0.000, 21:30:54.580, 1592537454580
92, 16843.67, 43905.08, 187500.00, 187500.00, -187500.02, -187500.02, -187500.02, -187500.02, 0.000, 0.000, 0.000, 21:30:54.580, 1592537454580
93, 16858.82, 43916.46, 187500.00, 187500.00, -187500.02, -187500.02, -187500.02, -187500.02, 0.000, 0.000, 0.000, 21:30:54.581, 1592537454581
94, 16851.16, 43907.65, 187500.00, 187500.00, -187500.02, -187500.02, -187500.02, -187500.02, 0.000, 0.000, 0.000, 21:30:54.596, 1592537454596
95, 16845.44, 43907.12, 187500.00, 187500.00, -187500.02, -187500.02, -187500.02, -187500.02, 0.000, 0.000, 0.000, 21:30:54.596, 1592537454596
96, 16870.85, 43928.04, 187500.00, 187500.00, -187500.02, -187500.02, -187500.02, -187500.02, 0.020, -0.044, 0.966, 21:30:54.597, 1592537454597
97, 16873.31, 43929.36, 187500.00, 187500.00, -187500.02, -187500.02, -187500.02, -187500.02, 0.000, 0.000, 0.000, 21:30:54.597, 1592537454597
98, 16843.56, 43904.66, 187500.00, 187500.00, -187500.02, -187500.02, -187500.02, -187500.02, 0.000, 0.000, 0.000, 21:30:54.612, 1592537454612
99, 16825.72, 43884.61, 187500.00, 187500.00, -187500.02, -187500.02, -187500.02, -187500.02, 0.000, 0.000, 0.000, 21:30:54.613, 1592537454613
100, 16833.52, 43895.11, 187500.00, 187500.00, -187500.02, -187500.02, -187500.02, -187500.02, 0.000, 0.000, 0.000, 21:30:54.613, 1592537454613
101, 16842.91, 43899.18, 187500.00, 187500.00, -187500.02, -187500.02, -187500.02, -187500.02, 0.000, 0.000, 0.000, 21:30:54.613, 1592537454613
102, 16852.16, 43897.57, 187500.00, 187500.00, -187500.02, -187500.02, -187500.02, -187500.02, 0.000, 0.000, 0.000, 21:30:54.625, 1592537454625
103, 16858.85, 43904.95, 187500.00, 187500.00, -187500.02, -187500.02, -187500.02, -187500.02, 0.000, 0.000, 0.000, 21:30:54.626, 1592537454626
104, 16864.59, 43910.25, 187500.00, 187500.00, -187500.02, -187500.02, -187500.02, -187500.02, 0.000, 0.000, 0.000, 21:30:54.627, 1592537454627
105, 16875.59, 43916.24, 187500.00, 187500.00, -187500.02, -187500.02, -187500.02, -187500.02, 0.000, 0.000, 0.000, 21:30:54.627, 1592537454627
106, 16870.85, 43909.31, 187500.00, 187500.00, -187500.02, -187500.02, -187500.02, -187500.02, 0.018, -0.042, 0.974, 21:30:54.641, 1592537454641
107, 16867.43, 43907.54, 187500.00, 187500.00, -187500.02, -187500.02, -187500.02, -187500.02, 0.000, 0.000, 0.000, 21:30:54.641, 1592537454641
108, 16853.13, 43896.05, 187500.00, 187500.00, -187500.02, -187500.02, -187500.02, -187500.02, 0.000, 0.000, 0.000, 21:30:54.641, 1592537454641
109, 16865.53, 43905.33, 187500.00, 187500.00, -187500.02, -187500.02, -187500.02, -187500.02, 0.000, 0.000, 0.000, 21:30:54.655, 1592537454655
110, 16850.78, 43892.45, 187500.00, 187500.00, -187500.02, -187500.02, -187500.02, -187500.02, 0.000, 0.000, 0.000, 21:30:54.655, 1592537454655
111, 16852.95, 43887.43, 187500.00, 187500.00, -187500.02, -187500.02, -187500.02, -187500.02, 0.000, 0.000, 0.000, 21:30:54.655, 1592537454655
112, 16864.26, 43887.70, 187500.00, 187500.00, -187500.02, -187500.02, -187500.02, -187500.02, 0.000, 0.000, 0.000, 21:30:54.656, 1592537454656
113, 16871.14, 43898.76, 187500.00, 187500.00, -187500.02, -187500.02, -187500.02, -187500.02, 0.000, 0.000, 0.000, 21:30:54.671, 1592537454671
114, 16861.28, 43895.81, 187500.00, 187500.00, -187500.02, -187500.02, -187500.02, -187500.02, 0.000, 0.000, 0.000, 21:30:54.671, 1592537454671
115, 16850.00, 43883.43, 187500.00, 187500.00, -187500.02, -187500.02, -187500.02, -187500.02, 0.000, 0.000, 0.000, 21:30:54.671, 1592537454671
116, 16864.39, 43892.97, 187500.00, 187500.00, -187500.02, -187500.02, -187500.02, -187500.02, 0.016, -0.046, 0.970, 21:30:54.671, 1592537454671
117, 16869.02, 43899.00, 187500.00, 187500.00, -187500.02, -187500.02, -187500.02, -187500.02, 0.000, 0.000, 0.000, 21:30:54.686, 1592537454686
118, 16870.63, 43896.81, 187500.00, 187500.00, -187500.02, -187500.02, -187500.02, -187500.02, 0.000, 0.000, 0.000, 21:30:54.686, 1592537454686
119, 16870.45, 43894.15, 187500.00, 187500.00, -187500.02, -187500.02, -187500.02, -187500.02, 0.000, 0.000, 0.000, 21:30:54.686, 1592537454686
120, 16862.40, 43885.73, 187500.00, 187500.00, -187500.02, -187500.02, -187500.02, -187500.02, 0.000, 0.000, 0.000, 21:30:54.686, 1592537454686
121, 16858.78, 43883.09, 187500.00, 187500.00, -187500.02, -187500.02, -187500.02, -187500.02, 0.000, 0.000, 0.000, 21:30:54.701, 1592537454701
122, 16845.95, 43868.11, 187500.00, 187500.00, -187500.02, -187500.02, -187500.02, -187500.02, 0.000, 0.000, 0.000, 21:30:54.701, 1592537454701
123, 16855.63, 43875.15, 187500.00, 187500.00, -187500.02, -187500.02, -187500.02, -187500.02, 0.000, 0.000, 0.000, 21:30:54.701, 1592537454701
124, 16854.73, 43872.94, 187500.00, 187500.00, -187500.02, -187500.02, -187500.02, -187500.02, 0.000, 0.000, 0.000, 21:30:54.701, 1592537454701
125, 16829.48, 43849.07, 187500.00, 187500.00, -187500.02, -187500.02, -187500.02, -187500.02, 0.000, 0.000, 0.000, 21:30:54.715, 1592537454715
126, 16835.09, 43852.29, 187500.00, 187500.00, -187500.02, -187500.02, -187500.02, -187500.02, 0.014, -0.044, 0.974, 21:30:54.715, 1592537454715
127, 16853.30, 43857.45, 187500.00, 187500.00, -187500.02, -187500.02, -187500.02, -187500.02, 0.000, 0.000, 0.000, 21:30:54.715, 1592537454715
128, 16849.10, 43849.56, 187500.00, 187500.00, -187500.02, -187500.02, -187500.02, -187500.02, 0.000, 0.000, 0.000, 21:30:54.730, 1592537454730
129, 16843.11, 43850.34, 187500.00, 187500.00, -187500.02, -187500.02, -187500.02, -187500.02, 0.000, 0.000, 0.000, 21:30:54.730, 1592537454730
130, 16839.00, 43850.32, 187500.00, 187500.00, -187500.02, -187500.02, -187500.02, -187500.02, 0.000, 0.000, 0.000, 21:30:54.730, 1592537454730
131, 16841.05, 43852.11, 187500.00, 187500.00, -187500.02, -187500.02, -187500.02, -187500.02, 0.000, 0.000, 0.000, 21:30:54.731, 1592537454731
132, 16846.02, 43849.00, 187500.00, 187500.00, -187500.02, -187500.02, -187500.02, -187500.02, 0.000, 0.000, 0.000, 21:30:54.746, 1592537454746
133, 16837.01, 43839.77, 187500.00, 187500.00, -187500.02, -187500.02, -187500.02, -187500.02, 0.000, 0.000, 0.000, 21:30:54.746, 1592537454746
134, 16848.54, 43851.75, 187500.00, 187500.00, -187500.02, -187500.02, -187500.02, -187500.02, 0.000, 0.000, 0.000, 21:30:54.746, 1592537454746
135, 16852.63, 43846.50, 187500.00, 187500.00, -187500.02, -187500.02, -187500.02, -187500.02, 0.000, 0.000, 0.000, 21:30:54.747, 1592537454747
136, 16838.66, 43825.33, 187500.00, 187500.00, -187500.02, -187500.02, -187500.02, -187500.02, 0.014, -0.052, 0.976, 21:30:54.761, 1592537454761
137, 16824.87, 43820.57, 187500.00, 187500.00, -187500.02, -187500.02, -187500.02, -187500.02, 0.000, 0.000, 0.000, 21:30:54.762, 1592537454762
138, 16821.39, 43819.54, 187500.00, 187500.00, -187500.02, -187500.02, -187500.02, -187500.02, 0.000, 0.000, 0.000, 21:30:54.763, 1592537454763
139, 16838.02, 43830.70, 187500.00, 187500.00, -187500.02, -187500.02, -187500.02, -187500.02, 0.000, 0.000, 0.000, 21:30:54.763, 1592537454763
140, 16845.15, 43836.89, 187500.00, 187500.00, -187500.02, -187500.02, -187500.02, -187500.02, 0.000, 0.000, 0.000, 21:30:54.776, 1592537454776
141, 16859.29, 43846.75, 187500.00, 187500.00, -187500.02, -187500.02, -187500.02, -187500.02, 0.000, 0.000, 0.000, 21:30:54.776, 1592537454776
142, 16854.42, 43840.40, 187500.00, 187500.00, -187500.02, -187500.02, -187500.02, -187500.02, 0.000, 0.000, 0.000, 21:30:54.777, 1592537454777
143, 16836.09, 43816.14, 187500.00, 187500.00, -187500.02, -187500.02, -187500.02, -187500.02, 0.000, 0.000, 0.000, 21:30:54.791, 1592537454791
144, 16836.65, 43817.15, 187500.00, 187500.00, -187500.02, -187500.02, -187500.02, -187500.02, 0.000, 0.000, 0.000, 21:30:54.792, 1592537454792
145, 16841.53, 43823.23, 187500.00, 187500.00, -187500.02, -187500.02, -187500.02, -187500.02, 0.000, 0.000, 0.000, 21:30:54.792, 1592537454792
146, 16841.32, 43822.02, 187500.00, 187500.00, -187500.02, -187500.02, -187500.02, -187500.02, 0.016, -0.050, 0.976, 21:30:54.792, 1592537454792
147, 16831.94, 43813.39, 187500.00, 187500.00, -187500.02, -187500.02, -187500.02, -187500.02, 0.000, 0.000, 0.000, 21:30:54.806, 1592537454806
148, 16834.86, 43813.55, 187500.00, 187500.00, -187500.02, -187500.02, -187500.02, -187500.02, 0.000, 0.000, 0.000, 21:30:54.807, 1592537454807
149, 16837.10, 43812.57, 187500.00, 187500.00, -187500.02, -187500.02, -187500.02, -187500.02, 0.000, 0.000, 0.000, 21:30:54.808, 1592537454808
150, 16847.31, 43821.40, 187500.00, 187500.00, -187500.02, -187500.02, -187500.02, -187500.02, 0.000, 0.000, 0.000, 21:30:54.808, 1592537454808
151, 16866.04, 43836.38, 187500.00, 187500.00, -187500.02, -187500.02, -187500.02, -187500.02, 0.000, 0.000, 0.000, 21:30:54.821, 1592537454821
152, 16854.80, 43825.60, 187500.00, 187500.00, -187500.02, -187500.02, -187500.02, -187500.02, 0.000, 0.000, 0.000, 21:30:54.821, 1592537454821
153, 16842.96, 43817.93, 187500.00, 187500.00, -187500.02, -187500.02, -187500.02, -187500.02, 0.000, 0.000, 0.000, 21:30:54.821, 1592537454821
154, 16854.51, 43830.83, 187500.00, 187500.00, -187500.02, -187500.02, -187500.02, -187500.02, 0.000, 0.000, 0.000, 21:30:54.821, 1592537454821
155, 16853.64, 43828.06, 187500.00, 187500.00, -187500.02, -187500.02, -187500.02, -187500.02, 0.000, 0.000, 0.000, 21:30:54.836, 1592537454836
156, 16853.17, 43821.04, 187500.00, 187500.00, -187500.02, -187500.02, -187500.02, -187500.02, 0.016, -0.046, 0.974, 21:30:54.836, 1592537454836
157, 16851.72, 43815.86, 187500.00, 187500.00, -187500.02, -187500.02, -187500.02, -187500.02, 0.000, 0.000, 0.000, 21:30:54.836, 1592537454836
158, 16853.44, 43819.57, 187500.00, 187500.00, -187500.02, -187500.02, -187500.02, -187500.02, 0.000, 0.000, 0.000, 21:30:54.851, 1592537454851
159, 16861.73, 43830.96, 187500.00, 187500.00, -187500.02, -187500.02, -187500.02, -187500.02, 0.000, 0.000, 0.000, 21:30:54.851, 1592537454851
160, 16845.03, 43812.26, 187500.00, 187500.00, -187500.02, -187500.02, -187500.02, -187500.02, 0.000, 0.000, 0.000, 21:30:54.851, 1592537454851
161, 16835.67, 43800.19, 187500.00, 187500.00, -187500.02, -187500.02, -187500.02, -187500.02, 0.000, 0.000, 0.000, 21:30:54.851, 1592537454851
162, 16832.94, 43802.06, 187500.00, 187500.00, -187500.02, -187500.02, -187500.02, -187500.02, 0.000, 0.000, 0.000, 21:30:54.866, 1592537454866
163, 16837.43, 43810.94, 187500.00, 187500.00, -187500.02, -187500.02, -187500.02, -187500.02, 0.000, 0.000, 0.000, 21:30:54.866, 1592537454866
164, 16835.22, 43807.50, 187500.00, 187500.00, -187500.02, -187500.02, -187500.02, -187500.02, 0.000, 0.000, 0.000, 21:30:54.866, 1592537454866
165, 16841.23, 43806.42, 187500.00, 187500.00, -187500.02, -187500.02, -187500.02, -187500.02, 0.000, 0.000, 0.000, 21:30:54.866, 1592537454866
166, 16845.15, 43805.37, 187500.00, 187500.00, -187500.02, -187500.02, -187500.02, -187500.02, 0.014, -0.050, 0.968, 21:30:54.881, 1592537454881
167, 16840.52, 43800.32, 187500.00, 187500.00, -187500.02, -187500.02, -187500.02, -187500.02, 0.000, 0.000, 0.000, 21:30:54.881, 1592537454881
168, 16843.09, 43800.52, 187500.00, 187500.00, -187500.02, -187500.02, -187500.02, -187500.02, 0.000, 0.000, 0.000, 21:30:54.881, 1592537454881
169, 16854.18, 43807.16, 187500.00, 187500.00, -187500.02, -187500.02, -187500.02, -187500.02, 0.000, 0.000, 0.000, 21:30:54.881, 1592537454881
170, 16844.36, 43807.14, 187500.00, 187500.00, -187500.02, -187500.02, -187500.02, -187500.02, 0.000, 0.000, 0.000, 21:30:54.896, 1592537454896
171, 16840.41, 43805.02, 187500.00, 187500.00, -187500.02, -187500.02, -187500.02, -187500.02, 0.000, 0.000, 0.000, 21:30:54.896, 1592537454896
172, 16837.77, 43794.17, 187500.00, 187500.00, -187500.02, -187500.02, -187500.02, -187500.02, 0.000, 0.000, 0.000, 21:30:54.896, 1592537454896
173, 16841.90, 43792.61, 187500.00, 187500.00, -187500.02, -187500.02, -187500.02, -187500.02, 0.000, 0.000, 0.000, 21:30:54.911, 1592537454911
174, 16848.77, 43800.95, 187500.00, 187500.00, -187500.02, -187500.02, -187500.02, -187500.02, 0.000, 0.000, 0.000, 21:30:54.912, 1592537454912
175, 16848.59, 43804.23, 187500.00, 187500.00, -187500.02, -187500.02, -187500.02, -187500.02, 0.016, -0.044, 0.972, 21:30:54.912, 1592537454912
176, 16850.22, 43805.46, 187500.00, 187500.00, -187500.02, -187500.02, -187500.02, -187500.02, 0.000, 0.000, 0.000, 21:30:54.913, 1592537454913
177, 16850.55, 43803.14, 187500.00, 187500.00, -187500.02, -187500.02, -187500.02, -187500.02, 0.000, 0.000, 0.000, 21:30:54.927, 1592537454927
178, 16849.15, 43797.14, 187500.00, 187500.00, -187500.02, -187500.02, -187500.02, -187500.02, 0.000, 0.000, 0.000, 21:30:54.928, 1592537454928
179, 16853.68, 43799.83, 187500.00, 187500.00, -187500.02, -187500.02, -187500.02, -187500.02, 0.000, 0.000, 0.000, 21:30:54.929, 1592537454929
180, 16849.57, 43800.54, 187500.00, 187500.00, -187500.02, -187500.02, -187500.02, -187500.02, 0.000, 0.000, 0.000, 21:30:54.930, 1592537454930
181, 16835.00, 43781.28, 187500.00, 187500.00, -187500.02, -187500.02, -187500.02, -187500.02, 0.000, 0.000, 0.000, 21:30:54.941, 1592537454941
182, 16837.23, 43781.28, 187500.00, 187500.00, -187500.02, -187500.02, -187500.02, -187500.02, 0.000, 0.000, 0.000, 21:30:54.942, 1592537454942
183, 16841.50, 43783.02, 187500.00, 187500.00, -187500.02, -187500.02, -187500.02, -187500.02, 0.000, 0.000, 0.000, 21:30:54.943, 1592537454943
184, 16846.80, 43780.92, 187500.00, 187500.00, -187500.02, -187500.02, -187500.02, -187500.02, 0.000, 0.000, 0.000, 21:30:54.944, 1592537454944
185, 16851.67, 43788.21, 187500.00, 187500.00, -187500.02, -187500.02, -187500.02, -187500.02, 0.016, -0.046, 0.966, 21:30:54.956, 1592537454956
186, 16844.45, 43789.14, 187500.00, 187500.00, -187500.02, -187500.02, -187500.02, -187500.02, 0.000, 0.000, 0.000, 21:30:54.956, 1592537454956
187, 16844.97, 43792.77, 187500.00, 187500.00, -187500.02, -187500.02, -187500.02, -187500.02, 0.000, 0.000, 0.000, 21:30:54.956, 1592537454956
188, 16852.52, 43798.67, 187500.00, 187500.00, -187500.02, -187500.02, -187500.02, -187500.02, 0.000, 0.000, 0.000, 21:30:54.970, 1592537454970
189, 16842.51, 43784.41, 187500.00, 187500.00, -187500.02, -187500.02, -187500.02, -187500.02, 0.000, 0.000, 0.000, 21:30:54.970, 1592537454970
190, 16840.79, 43776.88, 187500.00, 187500.00, -187500.02, -187500.02, -187500.02, -187500.02, 0.000, 0.000, 0.000, 21:30:54.971, 1592537454971
191, 16839.65, 43774.06, 187500.00, 187500.00, -187500.02, -187500.02, -187500.02, -187500.02, 0.000, 0.000, 0.000, 21:30:54.971, 1592537454971
192, 16832.90, 43770.44, 187500.00, 187500.00, -187500.02, -187500.02, -187500.02, -187500.02, 0.000, 0.000, 0.000, 21:30:54.986, 1592537454986
193, 16836.70, 43775.64, 187500.00, 187500.00, -187500.02, -187500.02, -187500.02, -187500.02, 0.000, 0.000, 0.000, 21:30:54.987, 1592537454987
194, 16828.34, 43766.39, 187500.00, 187500.00, -187500.02, -187500.02, -187500.02, -187500.02, 0.000, 0.000, 0.000, 21:30:54.987, 1592537454987
195, 16846.08, 43782.28, 187500.00, 187500.00, -187500.02, -187500.02, -187500.02, -187500.02, 0.018, -0.044, 0.966, 21:30:54.987, 1592537454987
196, 16847.78, 43784.25, 187500.00, 187500.00, -187500.02, -187500.02, -187500.02, -187500.02, 0.000, 0.000, 0.000, 21:30:55.001, 1592537455001
197, 16840.97, 43770.79, 187500.00, 187500.00, -187500.02, -187500.02, -187500.02, -187500.02, 0.000, 0.000, 0.000, 21:30:55.001, 1592537455001
198, 16844.21, 43768.74, 187500.00, 187500.00, -187500.02, -187500.02, -187500.02, -187500.02, 0.000, 0.000, 0.000, 21:30:55.001, 1592537455001
199, 16835.96, 43759.86, 187500.00, 187500.00, -187500.02, -187500.02, -187500.02, -187500.02, 0.000, 0.000, 0.000, 21:30:55.001, 1592537455001
200, 16833.79, 43759.19, 187500.00, 187500.00, -187500.02, -187500.02, -187500.02, -187500.02, 0.000, 0.000, 0.000, 21:30:55.016, 1592537455016
201, 16838.55, 43771.22, 187500.00, 187500.00, -187500.02, -187500.02, -187500.02, -187500.02, 0.000, 0.000, 0.000, 21:30:55.016, 1592537455016
202, 16843.96, 43780.74, 187500.00, 187500.00, -187500.02, -187500.02, -187500.02, -187500.02, 0.000, 0.000, 0.000, 21:30:55.016, 1592537455016
203, 16833.97, 43767.53, 187500.00, 187500.00, -187500.02, -187500.02, -187500.02, -187500.02, 0.000, 0.000, 0.000, 21:30:55.030, 1592537455030
204, 16832.49, 43765.86, 187500.00, 187500.00, -187500.02, -187500.02, -187500.02, -187500.02, 0.000, 0.000, 0.000, 21:30:55.030, 1592537455030
205, 16843.45, 43770.95, 187500.00, 187500.00, -187500.02, -187500.02, -187500.02, -187500.02, 0.018, -0.040, 0.970, 21:30:55.031, 1592537455031
206, 16846.84, 43769.41, 187500.00, 187500.00, -187500.02, -187500.02, -187500.02, -187500.02, 0.000, 0.000, 0.000, 21:30:55.031, 1592537455031
207, 16841.97, 43763.91, 187500.00, 187500.00, -187500.02, -187500.02, -187500.02, -187500.02, 0.000, 0.000, 0.000, 21:30:55.046, 1592537455046
208, 16843.78, 43765.27, 187500.00, 187500.00, -187500.02, -187500.02, -187500.02, -187500.02, 0.000, 0.000, 0.000, 21:30:55.047, 1592537455047
209, 16849.59, 43774.73, 187500.00, 187500.00, -187500.02, -187500.02, -187500.02, -187500.02, 0.000, 0.000, 0.000, 21:30:55.047, 1592537455047
210, 16845.50, 43767.78, 187500.00, 187500.00, -187500.02, -187500.02, -187500.02, -187500.02, 0.000, 0.000, 0.000, 21:30:55.047, 1592537455047
211, 16850.02, 43766.46, 187500.00, 187500.00, -187500.02, -187500.02, -187500.02, -187500.02, 0.000, 0.000, 0.000, 21:30:55.063, 1592537455063
212, 16845.10, 43763.44, 187500.00, 187500.00, -187500.02, -187500.02, -187500.02, -187500.02, 0.000, 0.000, 0.000, 21:30:55.063, 1592537455063
213, 16858.11, 43779.40, 187500.00, 187500.00, -187500.02, -187500.02, -187500.02, -187500.02, 0.000, 0.000, 0.000, 21:30:55.063, 1592537455063
214, 16857.64, 43777.32, 187500.00, 187500.00, -187500.02, -187500.02, -187500.02, -187500.02, 0.000, 0.000, 0.000, 21:30:55.064, 1592537455064
215, 16846.08, 43771.38, 187500.00, 187500.00, -187500.02, -187500.02, -187500.02, -187500.02, 0.018, -0.040, 0.974, 21:30:55.076, 1592537455076
216, 16851.85, 43783.04, 187500.00, 187500.00, -187500.02, -187500.02, -187500.02, -187500.02, 0.000, 0.000, 0.000, 21:30:55.077, 1592537455077
217, 16855.63, 43773.05, 187500.00, 187500.00, -187500.02, -187500.02, -187500.02, -187500.02, 0.000, 0.000, 0.000, 21:30:55.077, 1592537455077
218, 16845.50, 43757.23, 187500.00, 187500.00, -187500.02, -187500.02, -187500.02, -187500.02, 0.000, 0.000, 0.000, 21:30:55.092, 1592537455092
219, 16827.94, 43735.86, 187500.00, 187500.00, -187500.02, -187500.02, -187500.02, -187500.02, 0.000, 0.000, 0.000, 21:30:55.092, 1592537455092
220, 16825.52, 43726.25, 187500.00, 187500.00, -187500.02, -187500.02, -187500.02, -187500.02, 0.000, 0.000, 0.000, 21:30:55.092, 1592537455092
221, 16833.28, 43739.50, 187500.00, 187500.00, -187500.02, -187500.02, -187500.02, -187500.02, 0.000, 0.000, 0.000, 21:30:55.092, 1592537455092
222, 16844.10, 43753.96, 187500.00, 187500.00, -187500.02, -187500.02, -187500.02, -187500.02, 0.000, 0.000, 0.000, 21:30:55.105, 1592537455105
223, 16850.60, 43760.31, 187500.00, 187500.00, -187500.02, -187500.02, -187500.02, -187500.02, 0.000, 0.000, 0.000, 21:30:55.106, 1592537455106
224, 16831.58, 43739.41, 187500.00, 187500.00, -187500.02, -187500.02, -187500.02, -187500.02, 0.000, 0.000, 0.000, 21:30:55.107, 1592537455107
225, 16841.08, 43745.92, 187500.00, 187500.00, -187500.02, -187500.02, -187500.02, -187500.02, 0.022, -0.042, 0.974, 21:30:55.108, 1592537455108
226, 16850.13, 43749.14, 187500.00, 187500.00, -187500.02, -187500.02, -187500.02, -187500.02, 0.000, 0.000, 0.000, 21:30:55.121, 1592537455121
227, 16838.66, 43734.52, 187500.00, 187500.00, -187500.02, -187500.02, -187500.02, -187500.02, 0.000, 0.000, 0.000, 21:30:55.122, 1592537455122
228, 16833.97, 43737.13, 187500.00, 187500.00, -187500.02, -187500.02, -187500.02, -187500.02, 0.000, 0.000, 0.000, 21:30:55.122, 1592537455122
229, 16840.85, 43744.13, 187500.00, 187500.00, -187500.02, -187500.02, -187500.02, -187500.02, 0.000, 0.000, 0.000, 21:30:55.123, 1592537455123
230, 16844.52, 43741.27, 187500.00, 187500.00, -187500.02, -187500.02, -187500.02, -187500.02, 0.000, 0.000, 0.000, 21:30:55.135, 1592537455135
231, 16844.68, 43743.32, 187500.00, 187500.00, -187500.02, -187500.02, -187500.02, -187500.02, 0.000, 0.000, 0.000, 21:30:55.135, 1592537455135
232, 16848.10, 43748.02, 187500.00, 187500.00, -187500.02, -187500.02, -187500.02, -187500.02, 0.000, 0.000, 0.000, 21:30:55.135, 1592537455135
233, 16848.03, 43744.46, 187500.00, 187500.00, -187500.02, -187500.02, -187500.02, -187500.02, 0.000, 0.000, 0.000, 21:30:55.151, 1592537455151
234, 16851.27, 43745.00, 187500.00, 187500.00, -187500.02, -187500.02, -187500.02, -187500.02, 0.000, 0.000, 0.000, 21:30:55.151, 1592537455151
235, 16856.79, 43747.93, 187500.00, 187500.00, -187500.02, -187500.02, -187500.02, -187500.02, 0.020, -0.040, 0.974, 21:30:55.151, 1592537455151
236, 16851.63, 43741.89, 187500.00, 187500.00, -187500.02, -187500.02, -187500.02, -187500.02, 0.000, 0.000, 0.000, 21:30:55.151, 1592537455151
237, 16855.40, 43745.92, 187500.00, 187500.00, -187500.02, -187500.02, -187500.02, -187500.02, 0.000, 0.000, 0.000, 21:30:55.166, 1592537455166
238, 16862.20, 43748.80, 187500.00, 187500.00, -187500.02, -187500.02, -187500.02, -187500.02, 0.000, 0.000, 0.000, 21:30:55.166, 1592537455166
239, 16870.27, 43754.75, 187500.00, 187500.00, -187500.02, -187500.02, -187500.02, -187500.02, 0.000, 0.000, 0.000, 21:30:55.166, 1592537455166
240, 16847.09, 43730.92, 187500.00, 187500.00, -187500.02, -187500.02, -187500.02, -187500.02, 0.000, 0.000, 0.000, 21:30:55.166, 1592537455166
241, 16848.07, 43732.28, 187500.00, 187500.00, -187500.02, -187500.02, -187500.02, -187500.02, 0.000, 0.000, 0.000, 21:30:55.182, 1592537455182
242, 16843.98, 43724.10, 187500.00, 187500.00, -187500.02, -187500.02, -187500.02, -187500.02, 0.000, 0.000, 0.000, 21:30:55.182, 1592537455182
243, 16844.86, 43722.76, 187500.00, 187500.00, -187500.02, -187500.02, -187500.02, -187500.02, 0.000, 0.000, 0.000, 21:30:55.182, 1592537455182
244, 16849.84, 43725.46, 187500.00, 187500.00, -187500.02, -187500.02, -187500.02, -187500.02, 0.000, 0.000, 0.000, 21:30:55.182, 1592537455182
245, 16846.26, 43727.12, 187500.00, 187500.00, -187500.02, -187500.02, -187500.02, -187500.02, 0.014, -0.042, 0.974, 21:30:55.196, 1592537455196
246, 16859.74, 43736.53, 187500.00, 187500.00, -187500.02, -187500.02, -187500.02, -187500.02, 0.000, 0.000, 0.000, 21:30:55.197, 1592537455197
247, 16865.31, 43742.86, 187500.00, 187500.00, -187500.02, -187500.02, -187500.02, -187500.02, 0.000, 0.000, 0.000, 21:30:55.197, 1592537455197
248, 16861.31, 43741.56, 187500.00, 187500.00, -187500.02, -187500.02, -187500.02, -187500.02, 0.000, 0.000, 0.000, 21:30:55.197, 1592537455197
249, 16852.90, 43732.73, 187500.00, 187500.00, -187500.02, -187500.02, -187500.02, -187500.02, 0.000, 0.000, 0.000, 21:30:55.212, 1592537455212
250, 16846.35, 43724.35, 187500.00, 187500.00, -187500.02, -187500.02, -187500.02, -187500.02, 0.000, 0.000, 0.000, 21:30:55.213, 1592537455213
251, 16845.99, 43723.14, 187500.00, 187500.00, -187500.02, -187500.02, -187500.02, -187500.02, 0.000, 0.000, 0.000, 21:30:55.213, 1592537455213
252, 16845.32, 43722.18, 187500.00, 187500.00, -187500.02, -187500.02, -187500.02, -187500.02, 0.000, 0.000, 0.000, 21:30:55.227, 1592537455227
253, 16846.98, 43720.55, 187500.00, 187500.00, -187500.02, -187500.02, -187500.02, -187500.02, 0.000, 0.000, 0.000, 21:30:55.227, 1592537455227
254, 16849.93, 43721.84, 187500.00, 187500.00, -187500.02, -187500.02, -187500.02, -187500.02, 0.020, -0.036, 0.974, 21:30:55.227, 1592537455227
255, 16843.56, 43716.39, 187500.00, 187500.00, -187500.02, -187500.02, -187500.02, -187500.02, 0.000, 0.000, 0.000, 21:30:55.228, 1592537455228
0, 16862.96, 43731.81, 187500.00, 187500.00, -187500.02, -187500.02, -187500.02, -187500.02, 0.000, 0.000, 0.000, 21:30:55.241, 1592537455241
1, 16859.72, 43725.93, 187500.00, 187500.00, -187500.02, -187500.02, -187500.02, -187500.02, 0.000, 0.000, 0.000, 21:30:55.242, 1592537455242
2, 16852.59, 43724.04, 187500.00, 187500.00, -187500.02, -187500.02, -187500.02, -187500.02, 0.000, 0.000, 0.000, 21:30:55.242, 1592537455242
3, 16842.51, 43711.61, 187500.00, 187500.00, -187500.02, -187500.02, -187500.02, -187500.02, 0.000, 0.000, 0.000, 21:30:55.242, 1592537455242
4, 16840.74, 43713.77, 187500.00, 187500.00, -187500.02, -187500.02, -187500.02, -187500.02, 0.000, 0.000, 0.000, 21:30:55.258, 1592537455258
5, 16850.98, 43721.93, 187500.00, 187500.00, -187500.02, -187500.02, -187500.02, -187500.02, 0.000, 0.000, 0.000, 21:30:55.259, 1592537455259
6, 16862.33, 43725.49, 187500.00, 187500.00, -187500.02, -187500.02, -187500.02, -187500.02, 0.000, 0.000, 0.000, 21:30:55.259, 1592537455259
7, 16860.32, 43718.40, 187500.00, 187500.00, -187500.02, -187500.02, -187500.02, -187500.02, 0.000, 0.000, 0.000, 21:30:55.260, 1592537455260
8, 16860.32, 43713.82, 187500.00, 187500.00, -187500.02, -187500.02, -187500.02, -187500.02, 0.020, -0.044, 0.972, 21:30:55.270, 1592537455270
9, 16859.56, 43708.81, 187500.00, 187500.00, -187500.02, -187500.02, -187500.02, -187500.02, 0.000, 0.000, 0.000, 21:30:55.270, 1592537455270
10, 16859.12, 43710.91, 187500.00, 187500.00, -187500.02, -187500.02, -187500.02, -187500.02, 0.000, 0.000, 0.000, 21:30:55.271, 1592537455271
11, 16859.50, 43713.11, 187500.00, 187500.00, -187500.02, -187500.02, -187500.02, -187500.02, 0.000, 0.000, 0.000, 21:30:55.286, 1592537455286
12, 16859.16, 43711.29, 187500.00, 187500.00, -187500.02, -187500.02, -187500.02, -187500.02, 0.000, 0.000, 0.000, 21:30:55.286, 1592537455286
13, 16857.82, 43713.19, 187500.00, 187500.00, -187500.02, -187500.02, -187500.02, -187500.02, 0.000, 0.000, 0.000, 21:30:55.286, 1592537455286
14, 16855.25, 43714.63, 187500.00, 187500.00, -187500.02, -187500.02, -187500.02, -187500.02, 0.000, 0.000, 0.000, 21:30:55.287, 1592537455287
15, 16846.96, 43705.13, 187500.00, 187500.00, -187500.02, -187500.02, -187500.02, -187500.02, 0.000, 0.000, 0.000, 21:30:55.301, 1592537455301
16, 16859.94, 43716.46, 187500.00, 187500.00, -187500.02, -187500.02, -187500.02, -187500.02, 0.000, 0.000, 0.000, 21:30:55.301, 1592537455301
17, 16851.83, 43705.91, 187500.00, 187500.00, -187500.02, -187500.02, -187500.02, -187500.02, 0.000, 0.000, 0.000, 21:30:55.301, 1592537455301
18, 16850.15, 43700.50, 187500.00, 187500.00, -187500.02, -187500.02, -187500.02, -187500.02, 0.020, -0.042, 0.966, 21:30:55.301, 1592537455301
19, 16851.52, 43702.35, 187500.00, 187500.00, -187500.02, -187500.02, -187500.02, -187500.02, 0.000, 0.000, 0.000, 21:30:55.317, 1592537455317
20, 16854.20, 43705.04, 187500.00, 187500.00, -187500.02, -187500.02, -187500.02, -187500.02, 0.000, 0.000, 0.000, 21:30:55.317, 1592537455317
21, 16853.44, 43704.10, 187500.00, 187500.00, -187500.02, -187500.02, -187500.02, -187500.02, 0.000, 0.000, 0.000, 21:30:55.317, 1592537455317
22, 16844.12, 43693.84, 187500.00, 187500.00, -187500.02, -187500.02, -187500.02, -187500.02, 0.000, 0.000, 0.000, 21:30:55.317, 1592537455317
23, 16848.30, 43695.49, 187500.00, 187500.00, -187500.02, -187500.02, -187500.02, -187500.02, 0.000, 0.000, 0.000, 21:30:55.330, 1592537455330
24, 16849.08, 43697.46, 187500.00, 187500.00, -187500.02, -187500.02, -187500.02, -187500.02, 0.000, 0.000, 0.000, 21:30:55.331, 1592537455331
25, 16853.88, 43702.11, 187500.00, 187500.00, -187500.02, -187500.02, -187500.02, -187500.02, 0.000, 0.000, 0.000, 21:30:55.331, 1592537455331
26, 16855.58, 43704.61, 187500.00, 187500.00, -187500.02, -187500.02, -187500.02, -187500.02, 0.000, 0.000, 0.000, 21:30:55.347, 1592537455347
27, 16847.09, 43691.58, 187500.00, 187500.00, -187500.02, -187500.02, -187500.02, -187500.02, 0.000, 0.000, 0.000, 21:30:55.347, 1592537455347
28, 16851.74, 43688.45, 187500.00, 187500.00, -187500.02, -187500.02, -187500.02, -187500.02, 0.020, -0.042, 0.974, 21:30:55.347, 1592537455347
29, 16849.21, 43684.40, 187500.00, 187500.00, -187500.02, -187500.02, -187500.02, -187500.02, 0.000, 0.000, 0.000, 21:30:55.347, 1592537455347
30, 16845.53, 43684.29, 187500.00, 187500.00, -187500.02, -187500.02, -187500.02, -187500.02, 0.000, 0.000, 0.000, 21:30:55.362, 1592537455362
31, 16822.30, 43658.34, 187500.00, 187500.00, -187500.02, -187500.02, -187500.02, -187500.02, 0.000, 0.000, 0.000, 21:30:55.363, 1592537455363
32, 16824.78, 43661.47, 187500.00, 187500.00, -187500.02, -187500.02, -187500.02, -187500.02, 0.000, 0.000, 0.000, 21:30:55.363, 1592537455363
33, 16829.37, 43667.44, 187500.00, 187500.00, -187500.02, -187500.02, -187500.02, -187500.02, 0.000, 0.000, 0.000, 21:30:55.363, 1592537455363
34, 16824.98, 43659.44, 187500.00, 187500.00, -187500.02, -187500.02, -187500.02, -187500.02, 0.000, 0.000, 0.000, 21:30:55.377, 1592537455377
35, 16815.13, 43642.83, 187500.00, 187500.00, -187500.02, -187500.02, -187500.02, -187500.02, 0.000, 0.000, 0.000, 21:30:55.378, 1592537455378
36, 16809.43, 43634.79, 187500.00, 187500.00, -187500.02, -187500.02, -187500.02, -187500.02, 0.000, 0.000, 0.000, 21:30:55.380, 1592537455380
37, 16816.96, 43646.18, 187500.00, 187500.00, -187500.02, -187500.02, -187500.02, -187500.02, 0.000, 0.000, 0.000, 21:30:55.380, 1592537455380
38, 16819.53, 43653.09, 187500.00, 187500.00, -187500.02, -187500.02, -187500.02, -187500.02, 0.016, -0.040, 0.980, 21:30:55.392, 1592537455392
39, 16820.40, 43653.36, 187500.00, 187500.00, -187500.02, -187500.02, -187500.02, -187500.02, 0.000, 0.000, 0.000, 21:30:55.392, 1592537455392
40, 16830.95, 43661.16, 187500.00, 187500.00, -187500.02, -187500.02, -187500.02, -187500.02, 0.000, 0.000, 0.000, 21:30:55.393, 1592537455393
41, 16833.75, 43666.52, 187500.00, 187500.00, -187500.02, -187500.02, -187500.02, -187500.02, 0.000, 0.000, 0.000, 21:30:55.407, 1592537455407
42, 16819.20, 43650.14, 187500.00, 187500.00, -187500.02, -187500.02, -187500.02, -187500.02, 0.000, 0.000, 0.000, 21:30:55.408, 1592537455408
43, 16819.20, 43641.73, 187500.00, 187500.00, -187500.02, -187500.02, -187500.02, -187500.02, 0.000, 0.000, 0.000, 21:30:55.408, 1592537455408
44, 16825.12, 43647.23, 187500.00, 187500.00, -187500.02, -187500.02, -187500.02, -187500.02, 0.000, 0.000, 0.000, 21:30:55.409, 1592537455409
45, 16834.30, 43654.30, 187500.00, 187500.00, -187500.02, -187500.02, -187500.02, -187500.02, 0.000, 0.000, 0.000, 21:30:55.421, 1592537455421
46, 16837.32, 43649.98, 187500.00, 187500.00, -187500.02, -187500.02, -187500.02, -187500.02, 0.000, 0.000, 0.000, 21:30:55.422, 1592537455422
47, 16834.80, 43653.38, 187500.00, 187500.00, -187500.02, -187500.02, -187500.02, -187500.02, 0.000, 0.000, 0.000, 21:30:55.422, 1592537455422
48, 16833.61, 43662.14, 187500.00, 187500.00, -187500.02, -187500.02, -187500.02, -187500.02, 0.016, -0.046, 0.980, 21:30:55.422, 1592537455422
49, 16831.76, 43656.84, 187500.00, 187500.00, -187500.02, -187500.02, -187500.02, -187500.02, 0.000, 0.000, 0.000, 21:30:55.436, 1592537455436
50, 16839.92, 43653.29, 187500.00, 187500.00, -187500.02, -187500.02, -187500.02, -187500.02, 0.000, 0.000, 0.000, 21:30:55.436, 1592537455436
51, 16830.75, 43640.37, 187500.00, 187500.00, -187500.02, -187500.02, -187500.02, -187500.02, 0.000, 0.000, 0.000, 21:30:55.436, 1592537455436
52, 16821.50, 43637.67, 187500.00, 187500.00, -187500.02, -187500.02, -187500.02, -187500.02, 0.000, 0.000, 0.000, 21:30:55.436, 1592537455436
53, 16816.07, 43630.83, 187500.00, 187500.00, -187500.02, -187500.02, -187500.02, -187500.02, 0.000, 0.000, 0.000, 21:30:55.451, 1592537455451
54, 16810.61, 43618.58, 187500.00, 187500.00, -187500.02, -187500.02, -187500.02, -187500.02, 0.000, 0.000, 0.000, 21:30:55.451, 1592537455451
55, 16823.78, 43622.98, 187500.00, 187500.00, -187500.02, -187500.02, -187500.02, -187500.02, 0.000, 0.000, 0.000, 21:30:55.451, 1592537455451
56, 16825.12, 43630.96, 187500.00, 187500.00, -187500.02, -187500.02, -187500.02, -187500.02, 0.000, 0.000, 0.000, 21:30:55.466, 1592537455466
57, 16826.66, 43636.37, 187500.00, 187500.00, -187500.02, -187500.02, -187500.02, -187500.02, 0.000, 0.000, 0.000, 21:30:55.466, 1592537455466
58, 16819.80, 43624.41, 187500.00, 187500.00, -187500.02, -187500.02, -187500.02, -187500.02, 0.018, -0.044, 0.976, 21:30:55.466, 1592537455466
59, 16813.52, 43615.81, 187500.00, 187500.00, -187500.02, -187500.02, -187500.02, -187500.02, 0.000, 0.000, 0.000, 21:30:55.466, 1592537455466
60, 16821.07, 43619.14, 187500.00, 187500.00, -187500.02, -187500.02, -187500.02, -187500.02, 0.000, 0.000, 0.000, 21:30:55.482, 1592537455482
61, 16808.38, 43607.40, 187500.00, 187500.00, -187500.02, -187500.02, -187500.02, -187500.02, 0.000, 0.000, 0.000, 21:30:55.482, 1592537455482
62, 16818.32, 43618.40, 187500.00, 187500.00, -187500.02, -187500.02, -187500.02, -187500.02, 0.000, 0.000, 0.000, 21:30:55.482, 1592537455482
63, 16817.81, 43612.61, 187500.00, 187500.00, -187500.02, -187500.02, -187500.02, -187500.02, 0.000, 0.000, 0.000, 21:30:55.482, 1592537455482
64, 16827.31, 43614.27, 187500.00, 187500.00, -187500.02, -187500.02, -187500.02, -187500.02, 0.000, 0.000, 0.000, 21:30:55.497, 1592537455497
65, 16830.39, 43615.89, 187500.00, 187500.00, -187500.02, -187500.02, -187500.02, -187500.02, 0.000, 0.000, 0.000, 21:30:55.497, 1592537455497
66, 16832.43, 43619.61, 187500.00, 187500.00, -187500.02, -187500.02, -187500.02, -187500.02, 0.000, 0.000, 0.000, 21:30:55.497, 1592537455497
67, 16834.21, 43625.98, 187500.00, 187500.00, -187500.02, -187500.02, -187500.02, -187500.02, 0.000, 0.000, 0.000, 21:30:55.497, 1592537455497
68, 16830.01, 43623.32, 187500.00, 187500.00, -187500.02, -187500.02, -187500.02, -187500.02, 0.018, -0.042, 0.974, 21:30:55.513, 1592537455513
69, 16827.58, 43615.41, 187500.00, 187500.00, -187500.02, -187500.02, -187500.02, -187500.02, 0.000, 0.000, 0.000, 21:30:55.513, 1592537455513
70, 16833.39, 43624.99, 187500.00, 187500.00, -187500.02, -187500.02, -187500.02, -187500.02, 0.000, 0.000, 0.000, 21:30:55.513, 1592537455513
71, 16836.83, 43628.75, 187500.00, 187500.00, -187500.02, -187500.02, -187500.02, -187500.02, 0.000, 0.000, 0.000, 21:30:55.528, 1592537455528
72, 16820.45, 43608.72, 187500.00, 187500.00, -187500.02, -187500.02, -187500.02, -187500.02, 0.000, 0.000, 0.000, 21:30:55.529, 1592537455529
73, 16815.96, 43604.32, 187500.00, 187500.00, -187500.02, -187500.02, -187500.02, -187500.02, 0.000, 0.000, 0.000, 21:30:55.530, 1592537455530
74, 16817.34, 43606.22, 187500.00, 187500.00, -187500.02, -187500.02, -187500.02, -187500.02, 0.000, 0.000, 0.000, 21:30:55.530, 1592537455530
75, 16813.00, 43599.22, 187500.00, 187500.00, -187500.02, -187500.02, -187500.02, -187500.02, 0.000, 0.000, 0.000, 21:30:55.541, 1592537455541
76, 16813.74, 43593.54, 187500.00, 187500.00, -187500.02, -187500.02, -187500.02, -187500.02, 0.000, 0.000, 0.000, 21:30:55.542, 1592537455542
77, 16815.24, 43589.68, 187500.00, 187500.00, -187500.02, -187500.02, -187500.02, -187500.02, 0.000, 0.000, 0.000, 21:30:55.543, 1592537455543
78, 16818.59, 43597.10, 187500.00, 187500.00, -187500.02, -187500.02, -187500.02, -187500.02, 0.016, -0.040, 0.970, 21:30:55.543, 1592537455543
79, 16819.78, 43601.23, 187500.00, 187500.00, -187500.02, -187500.02, -187500.02, -187500.02, 0.000, 0.000, 0.000, 21:30:55.557, 1592537455557
80, 16816.51, 43595.67, 187500.00, 187500.00, -187500.02, -187500.02, -187500.02, -187500.02, 0.000, 0.000, 0.000, 21:30:55.558, 1592537455558
81, 16821.23, 43604.77, 187500.00, 187500.00, -187500.02, -187500.02, -187500.02, -187500.02, 0.000, 0.000, 0.000, 21:30:55.558, 1592537455558
82, 16814.84, 43602.17, 187500.00, 187500.00, -187500.02, -187500.02, -187500.02, -187500.02, 0.000, 0.000, 0.000, 21:30:55.559, 1592537455559
83, 16804.91, 43590.62, 187500.00, 187500.00, -187500.02, -187500.02, -187500.02, -187500.02, 0.000, 0.000, 0.000, 21:30:55.571, 1592537455571
84, 16811.71, 43592.89, 187500.00, 187500.00, -187500.02, -187500.02, -187500.02, -187500.02, 0.000, 0.000, 0.000, 21:30:55.571, 1592537455571
85, 16821.07, 43602.53, 187500.00, 187500.00, -187500.02, -187500.02, -187500.02, -187500.02, 0.000, 0.000, 0.000, 21:30:55.571, 1592537455571
86, 16817.99, 43599.29, 187500.00, 187500.00, -187500.02, -187500.02, -187500.02, -187500.02, 0.000, 0.000, 0.000, 21:30:55.586, 1592537455586
87, 16809.05, 43594.64, 187500.00, 187500.00, -187500.02, -187500.02, -187500.02, -187500.02, 0.016, -0.042, 0.972, 21:30:55.586, 1592537455586
88, 16811.46, 43598.26, 187500.00, 187500.00, -187500.02, -187500.02, -187500.02, -187500.02, 0.000, 0.000, 0.000, 21:30:55.586, 1592537455586
89, 16809.83, 43591.58, 187500.00, 187500.00, -187500.02, -187500.02, -187500.02, -187500.02, 0.000, 0.000, 0.000, 21:30:55.586, 1592537455586
90, 16809.81, 43586.82, 187500.00, 187500.00, -187500.02, -187500.02, -187500.02, -187500.02, 0.000, 0.000, 0.000, 21:30:55.601, 1592537455601
91, 16810.86, 43593.16, 187500.00, 187500.00, -187500.02, -187500.02, -187500.02, -187500.02, 0.000, 0.000, 0.000, 21:30:55.601, 1592537455601
92, 16815.46, 43600.29, 187500.00, 187500.00, -187500.02, -187500.02, -187500.02, -187500.02, 0.000, 0.000, 0.000, 21:30:55.601, 1592537455601
93, 16815.93, 43593.21, 187500.00, 187500.00, -187500.02, -187500.02, -187500.02, -187500.02, 0.000, 0.000, 0.000, 21:30:55.601, 1592537455601
94, 16812.18, 43589.61, 187500.00, 187500.00, -187500.02, -187500.02, -187500.02, -187500.02, 0.000, 0.000, 0.000, 21:30:55.617, 1592537455617
95, 16811.15, 43587.64, 187500.00, 187500.00, -187500.02, -187500.02, -187500.02, -187500.02, 0.000, 0.000, 0.000, 21:30:55.617, 1592537455617
96, 16809.14, 43582.44, 187500.00, 187500.00, -187500.02, -187500.02, -187500.02, -187500.02, 0.000, 0.000, 0.000, 21:30:55.617, 1592537455617
97, 16809.43, 43580.78, 187500.00, 187500.00, -187500.02, -187500.02, -187500.02, -187500.02, 0.016, -0.044, 0.970, 21:30:55.618, 1592537455618
98, 16811.04, 43582.19, 187500.00, 187500.00, -187500.02, -187500.02, -187500.02, -187500.02, 0.000, 0.000, 0.000, 21:30:55.632, 1592537455632
99, 16799.64, 43571.71, 187500.00, 187500.00, -187500.02, -187500.02, -187500.02, -187500.02, 0.000, 0.000, 0.000, 21:30:55.632, 1592537455632
100, 16801.47, 43574.10, 187500.00, 187500.00, -187500.02, -187500.02, -187500.02, -187500.02, 0.000, 0.000, 0.000, 21:30:55.632, 1592537455632
101, 16797.74, 43570.50, 187500.00, 187500.00, -187500.02, -187500.02, -187500.02, -187500.02, 0.000, 0.000, 0.000, 21:30:55.646, 1592537455646
102, 16825.70, 43592.18, 187500.00, 187500.00, -187500.02, -187500.02, -187500.02, -187500.02, 0.000, 0.000, 0.000, 21:30:55.647, 1592537455647
103, 16823.11, 43582.55, 187500.00, 187500.00, -187500.02, -187500.02, -187500.02, -187500.02, 0.000, 0.000, 0.000, 21:30:55.647, 1592537455647
104, 16796.26, 43564.58, 187500.00, 187500.00, -187500.02, -187500.02, -187500.02, -187500.02, 0.000, 0.000, 0.000, 21:30:55.647, 1592537455647
105, 16802.72, 43574.50, 187500.00, 187500.00, -187500.02, -187500.02, -187500.02, -187500.02, 0.000, 0.000, 0.000, 21:30:55.662, 1592537455662
106, 16801.00, 43572.96, 187500.00, 187500.00, -187500.02, -187500.02, -187500.02, -187500.02, 0.000, 0.000, 0.000, 21:30:55.663, 1592537455663
107, 16803.97, 43576.04, 187500.00, 187500.00, -187500.02, -187500.02, -187500.02, -187500.02, 0.016, -0.042, 0.970, 21:30:55.663, 1592537455663
108, 16810.10, 43575.33, 187500.00, 187500.00, -187500.02, -187500.02, -187500.02, -187500.02, 0.000, 0.000, 0.000, 21:30:55.663, 1592537455663
109, 16819.96, 43572.38, 187500.00, 187500.00, -187500.02, -187500.02, -187500.02, -187500.02, 0.000, 0.000, 0.000, 21:30:55.678, 1592537455678
110, 16819.44, 43573.59, 187500.00, 187500.00, -187500.02, -187500.02, -187500.02, -187500.02, 0.000, 0.000, 0.000, 21:30:55.679, 1592537455679
111, 16824.00, 43581.61, 187500.00, 187500.00, -187500.02, -187500.02, -187500.02, -187500.02, 0.000, 0.000, 0.000, 21:30:55.680, 1592537455680
112, 16817.18, 43575.48, 187500.00, 187500.00, -187500.02, -187500.02, -187500.02, -187500.02, 0.000, 0.000, 0.000, 21:30:55.680, 1592537455680
113, 16804.40, 43561.25, 187500.00, 187500.00, -187500.02, -187500.02, -187500.02, -187500.02, 0.000, 0.000, 0.000, 21:30:55.691, 1592537455691
114, 16808.04, 43563.23, 187500.00, 187500.00, -187500.02, -187500.02, -187500.02, -187500.02, 0.000, 0.000, 0.000, 21:30:55.692, 1592537455692
115, 16804.20, 43560.78, 187500.00, 187500.00, -187500.02, -187500.02, -187500.02, -187500.02, 0.000, 0.000, 0.000, 21:30:55.692, 1592537455692
116, 16810.19, 43569.67, 187500.00, 187500.00, -187500.02, -187500.02, -187500.02, -187500.02, 0.000, 0.000, 0.000, 21:30:55.692, 1592537455692
117, 16809.23, 43567.46, 187500.00, 187500.00, -187500.02, -187500.02, -187500.02, -187500.02, 0.020, -0.036, 0.970, 21:30:55.707, 1592537455707
118, 16809.74, 43569.38, 187500.00, 187500.00, -187500.02, -187500.02, -187500.02, -187500.02, 0.000, 0.000, 0.000, 21:30:55.707, 1592537455707
119, 16809.81, 43568.49, 187500.00, 187500.00, -187500.02, -187500.02, -187500.02, -187500.02, 0.000, 0.000, 0.000, 21:30:55.708, 1592537455708
120, 16797.78, 43555.90, 187500.00, 187500.00, -187500.02, -187500.02, -187500.02, -187500.02, 0.000, 0.000, 0.000, 21:30:55.722, 1592537455722
121, 16796.89, 43555.30, 187500.00, 187500.00, -187500.02, -187500.02, -187500.02, -187500.02, 0.000, 0.000, 0.000, 21:30:55.722, 1592537455722
122, 16801.43, 43557.71, 187500.00, 187500.00, -187500.02, -187500.02, -187500.02, -187500.02, 0.000, 0.000, 0.000, 21:30:55.722, 1592537455722
123, 16800.46, 43556.75, 187500.00, 187500.00, -187500.02, -187500.02, -187500.02, -187500.02, 0.000, 0.000, 0.000, 21:30:55.722, 1592537455722
124, 16794.50, 43549.82, 187500.00, 187500.00, -187500.02, -187500.02, -187500.02, -187500.02, 0.000, 0.000, 0.000, 21:30:55.736, 1592537455736
125, 16789.15, 43544.95, 187500.00, 187500.00, -187500.02, -187500.02, -187500.02, -187500.02, 0.000, 0.000, 0.000, 21:30:55.737, 1592537455737
126, 16794.16, 43543.90, 187500.00, 187500.00, -187500.02, -187500.02, -187500.02, -187500.02, 0.000, 0.000, 0.000, 21:30:55.737, 1592537455737
127, 16793.65, 43543.05, 187500.00, 187500.00, -187500.02, -187500.02, -187500.02, -187500.02, 0.020, -0.038, 0.972, 21:30:55.737, 1592537455737
128, 16796.06, 43547.41, 187500.00, 187500.00, -187500.02, -187500.02, -187500.02, -187500.02, 0.000, 0.000, 0.000, 21:30:55.752, 1592537455752
129, 16793.54, 43546.27, 187500.00, 187500.00, -187500.02, -187500.02, -187500.02, -187500.02, 0.000, 0.000, 0.000, 21:30:55.752, 1592537455752
130, 16795.46, 43547.43, 187500.00, 187500.00, -187500.02, -187500.02, -187500.02, -187500.02, 0.000, 0.000, 0.000, 21:30:55.752, 1592537455752
131, 16802.05, 43551.99, 187500.00, 187500.00, -187500.02, -187500.02, -187500.02, -187500.02, 0.000, 0.000, 0.000, 21:30:55.753, 1592537455753
132, 16790.45, 43543.41, 187500.00, 187500.00, -187500.02, -187500.02, -187500.02, -187500.02, 0.000, 0.000, 0.000, 21:30:55.766, 1592537455766
133, 16795.01, 43545.96, 187500.00, 187500.00, -187500.02, -187500.02, -187500.02, -187500.02, 0.000, 0.000, 0.000, 21:30:55.766, 1592537455766
134, 16804.06, 43551.57, 187500.00, 187500.00, -187500.02, -187500.02, -187500.02, -187500.02, 0.000, 0.000, 0.000, 21:30:55.766, 1592537455766
135, 16820.16, 43561.05, 187500.00, 187500.00, -187500.02, -187500.02, -187500.02, -187500.02, 0.000, 0.000, 0.000, 21:30:55.782, 1592537455782
136, 16830.51, 43571.08, 187500.00, 187500.00, -187500.02, -187500.02, -187500.02, -187500.02, 0.000, 0.000, 0.000, 21:30:55.782, 1592537455782
137, 16822.86, 43571.10, 187500.00, 187500.00, -187500.02, -187500.02, -187500.02, -187500.02, 0.018, -0.042, 0.974, 21:30:55.782, 1592537455782
138, 16808.44, 43560.40, 187500.00, 187500.00, -187500.02, -187500.02, -187500.02, -187500.02, 0.000, 0.000, 0.000, 21:30:55.782, 1592537455782
139, 16803.62, 43556.80, 187500.00, 187500.00, -187500.02, -187500.02, -187500.02, -187500.02, 0.000, 0.000, 0.000, 21:30:55.796, 1592537455796
140, 16792.55, 43543.19, 187500.00, 187500.00, -187500.02, -187500.02, -187500.02, -187500.02, 0.000, 0.000, 0.000, 21:30:55.797, 1592537455797
141, 16795.14, 43541.49, 187500.00, 187500.00, -187500.02, -187500.02, -187500.02, -187500.02, 0.000, 0.000, 0.000, 21:30:55.797, 1592537455797
142, 16804.11, 43548.37, 187500.00, 187500.00, -187500.02, -187500.02, -187500.02, -187500.02, 0.000, 0.000, 0.000, 21:30:55.797, 1592537455797
143, 16804.06, 43550.54, 187500.00, 187500.00, -187500.02, -187500.02, -187500.02, -187500.02, 0.000, 0.000, 0.000, 21:30:55.813, 1592537455813
144, 16806.03, 43553.33, 187500.00, 187500.00, -187500.02, -187500.02, -187500.02, -187500.02, 0.000, 0.000, 0.000, 21:30:55.813, 1592537455813
145, 16812.76, 43557.34, 187500.00, 187500.00, -187500.02, -187500.02, -187500.02, -187500.02, 0.000, 0.000, 0.000, 21:30:55.813, 1592537455813
146, 16815.15, 43553.13, 187500.00, 187500.00, -187500.02, -187500.02, -187500.02, -187500.02, 0.000, 0.000, 0.000, 21:30:55.813, 1592537455813
147, 16803.95, 43540.06, 187500.00, 187500.00, -187500.02, -187500.02, -187500.02, -187500.02, 0.018, -0.042, 0.970, 21:30:55.827, 1592537455827
148, 16808.20, 43541.73, 187500.00, 187500.00, -187500.02, -187500.02, -187500.02, -187500.02, 0.000, 0.000, 0.000, 21:30:55.827, 1592537455827
149, 16809.03, 43541.75, 187500.00, 187500.00, -187500.02, -187500.02, -187500.02, -187500.02, 0.000, 0.000, 0.000, 21:30:55.828, 1592537455828
150, 16800.15, 43533.95, 187500.00, 187500.00, -187500.02, -187500.02, -187500.02, -187500.02, 0.000, 0.000, 0.000, 21:30:55.843, 1592537455843
151, 16803.01, 43534.74, 187500.00, 187500.00, -187500.02, -187500.02, -187500.02, -187500.02, 0.000, 0.000, 0.000, 21:30:55.844, 1592537455844
152, 16810.59, 43547.19, 187500.00, 187500.00, -187500.02, -187500.02, -187500.02, -187500.02, 0.000, 0.000, 0.000, 21:30:55.844, 1592537455844
153, 16810.21, 43551.97, 187500.00, 187500.00, -187500.02, -187500.02, -187500.02, -187500.02, 0.000, 0.000, 0.000, 21:30:55.845, 1592537455845
154, 16807.80, 43547.30, 187500.00, 187500.00, -187500.02, -187500.02, -187500.02, -187500.02, 0.000, 0.000, 0.000, 21:30:55.858, 1592537455858
155, 16809.25, 43543.63, 187500.00, 187500.00, -187500.02, -187500.02, -187500.02, -187500.02, 0.000, 0.000, 0.000, 21:30:55.858, 1592537455858
156, 16808.80, 43545.06, 187500.00, 187500.00, -187500.02, -187500.02, -187500.02, -187500.02, 0.000, 0.000, 0.000, 21:30:55.858, 1592537455858
157, 16806.52, 43543.52, 187500.00, 187500.00, -187500.02, -187500.02, -187500.02, -187500.02, 0.016, -0.036, 0.972, 21:30:55.859, 1592537455859
158, 16807.17, 43545.98, 187500.00, 187500.00, -187500.02, -187500.02, -187500.02, -187500.02, 0.000, 0.000, 0.000, 21:30:55.872, 1592537455872
159, 16814.01, 43550.92, 187500.00, 187500.00, -187500.02, -187500.02, -187500.02, -187500.02, 0.000, 0.000, 0.000, 21:30:55.872, 1592537455872
160, 16830.17, 43566.01, 187500.00, 187500.00, -187500.02, -187500.02, -187500.02, -187500.02, 0.000, 0.000, 0.000, 21:30:55.872, 1592537455872
161, 16826.37, 43560.04, 187500.00, 187500.00, -187500.02, -187500.02, -187500.02, -187500.02, 0.000, 0.000, 0.000, 21:30:55.872, 1592537455872
162, 16815.96, 43554.16, 187500.00, 187500.00, -187500.02, -187500.02, -187500.02, -187500.02, 0.000, 0.000, 0.000, 21:30:55.886, 1592537455886
163, 16792.93, 43533.73, 187500.00, 187500.00, -187500.02, -187500.02, -187500.02, -187500.02, 0.000, 0.000, 0.000, 21:30:55.886, 1592537455886
164, 16781.78, 43520.05, 187500.00, 187500.00, -187500.02, -187500.02, -187500.02, -187500.02, 0.000, 0.000, 0.000, 21:30:55.886, 1592537455886
165, 16775.72, 43516.27, 187500.00, 187500.00, -187500.02, -187500.02, -187500.02, -187500.02, 0.000, 0.000, 0.000, 21:30:55.901, 1592537455901
166, 16786.00, 43523.16, 187500.00, 187500.00, -187500.02, -187500.02, -187500.02, -187500.02, 0.016, -0.038, 0.974, 21:30:55.901, 1592537455901
167, 16784.21, 43517.97, 187500.00, 187500.00, -187500.02, -187500.02, -187500.02, -187500.02, 0.000, 0.000, 0.000, 21:30:55.901, 1592537455901
168, 16777.51, 43513.88, 187500.00, 187500.00, -187500.02, -187500.02, -187500.02, -187500.02, 0.000, 0.000, 0.000, 21:30:55.902, 1592537455902
169, 16790.79, 43527.34, 187500.00, 187500.00, -187500.02, -187500.02, -187500.02, -187500.02, 0.000, 0.000, 0.000, 21:30:55.917, 1592537455917
170, 16801.49, 43531.94, 187500.00, 187500.00, -187500.02, -187500.02, -187500.02, -187500.02, 0.000, 0.000, 0.000, 21:30:55.917, 1592537455917
171, 16801.61, 43527.94, 187500.00, 187500.00, -187500.02, -187500.02, -187500.02, -187500.02, 0.000, 0.000, 0.000, 21:30:55.917, 1592537455917
172, 16802.43, 43524.12, 187500.00, 187500.00, -187500.02, -187500.02, -187500.02, -187500.02, 0.000, 0.000, 0.000, 21:30:55.917, 1592537455917
173, 16805.11, 43528.90, 187500.00, 187500.00, -187500.02, -187500.02, -187500.02, -187500.02, 0.000, 0.000, 0.000, 21:30:55.931, 1592537455931
174, 16807.04, 43532.57, 187500.00, 187500.00, -187500.02, -187500.02, -187500.02, -187500.02, 0.000, 0.000, 0.000, 21:30:55.932, 1592537455932
175, 16806.10, 43530.56, 187500.00, 187500.00, -187500.02, -187500.02, -187500.02, -187500.02, 0.000, 0.000, 0.000, 21:30:55.932, 1592537455932
176, 16807.21, 43528.99, 187500.00, 187500.00, -187500.02, -187500.02, -187500.02, -187500.02, 0.014, -0.038, 0.972, 21:30:55.932, 1592537455932
177, 16799.53, 43524.25, 187500.00, 187500.00, -187500.02, -187500.02, -187500.02, -187500.02, 0.000, 0.000, 0.000, 21:30:55.947, 1592537455947
178, 16802.23, 43525.02, 187500.00, 187500.00, -187500.02, -187500.02, -187500.02, -187500.02, 0.000, 0.000, 0.000, 21:30:55.948, 1592537455948
179, 16811.78, 43529.30, 187500.00, 187500.00, -187500.02, -187500.02, -187500.02, -187500.02, 0.000, 0.000, 0.000, 21:30:55.949, 1592537455949
180, 16818.14, 43537.84, 187500.00, 187500.00, -187500.02, -187500.02, -187500.02, -187500.02, 0.000, 0.000, 0.000, 21:30:55.963, 1592537455963
181, 16810.99, 43531.12, 187500.00, 187500.00, -187500.02, -187500.02, -187500.02, -187500.02, 0.000, 0.000, 0.000, 21:30:55.963, 1592537455963
182, 16813.07, 43529.08, 187500.00, 187500.00, -187500.02, -187500.02, -187500.02, -187500.02, 0.000, 0.000, 0.000, 21:30:55.964, 1592537455964
183, 16804.02, 43522.78, 187500.00, 187500.00, -187500.02, -187500.02, -187500.02, -187500.02, 0.000, 0.000, 0.000, 21:30:55.964, 1592537455964
184, 16808.04, 43519.63, 187500.00, 187500.00, -187500.02, -187500.02, -187500.02, -187500.02, 0.000, 0.000, 0.000, 21:30:55.978, 1592537455978
185, 16812.38, 43516.34, 187500.00, 187500.00, -187500.02, -187500.02, -187500.02, -187500.02, 0.000, 0.000, 0.000, 21:30:55.978, 1592537455978
186, 16806.30, 43515.96, 187500.00, 187500.00, -187500.02, -187500.02, -187500.02, -187500.02, 0.016, -0.038, 0.974, 21:30:55.979, 1592537455979
187, 16804.53, 43517.97, 187500.00, 187500.00, -187500.02, -187500.02, -187500.02, -187500.02, 0.000, 0.000, 0.000, 21:30:55.979, 1592537455979
188, 16802.57, 43517.91, 187500.00, 187500.00, -187500.02, -187500.02, -187500.02, -187500.02, 0.000, 0.000, 0.000, 21:30:55.992, 1592537455992
189, 16797.36, 43512.36, 187500.00, 187500.00, -187500.02, -187500.02, -187500.02, -187500.02, 0.000, 0.000, 0.000, 21:30:55.993, 1592537455993
190, 16799.23, 43516.52, 187500.00, 187500.00, -187500.02, -187500.02, -187500.02, -187500.02, 0.000, 0.000, 0.000, 21:30:55.993, 1592537455993
191, 16806.59, 43519.74, 187500.00, 187500.00, -187500.02, -187500.02, -187500.02, -187500.02, 0.000, 0.000, 0.000, 21:30:55.994, 1592537455994
192, 16809.05, 43516.54, 187500.00, 187500.00, -187500.02, -187500.02, -187500.02, -187500.02, 0.000, 0.000, 0.000, 21:30:56.007, 1592537456007
193, 16817.77, 43526.73, 187500.00, 187500.00, -187500.02, -187500.02, -187500.02, -187500.02, 0.000, 0.000, 0.000, 21:30:56.008, 1592537456008
194, 16817.25, 43538.98, 187500.00, 187500.00, -187500.02, -187500.02, -187500.02, -187500.02, 0.000, 0.000, 0.000, 21:30:56.008, 1592537456008
195, 16816.83, 43536.59, 187500.00, 187500.00, -187500.02, -187500.02, -187500.02, -187500.02, 0.000, 0.000, 0.000, 21:30:56.021, 1592537456021
196, 16807.88, 43520.99, 187500.00, 187500.00, -187500.02, -187500.02, -187500.02, -187500.02, 0.010, -0.040, 0.974, 21:30:56.022, 1592537456022
197, 16804.69, 43516.86, 187500.00, 187500.00, -187500.02, -187500.02, -187500.02, -187500.02, 0.000, 0.000, 0.000, 21:30:56.022, 1592537456022
198, 16812.33, 43522.82, 187500.00, 187500.00, -187500.02, -187500.02, -187500.02, -187500.02, 0.000, 0.000, 0.000, 21:30:56.022, 1592537456022
199, 16812.96, 43522.55, 187500.00, 187500.00, -187500.02, -187500.02, -187500.02, -187500.02, 0.000, 0.000, 0.000, 21:30:56.037, 1592537456037
200, 16817.38, 43527.54, 187500.00, 187500.00, -187500.02, -187500.02, -187500.02, -187500.02, 0.000, 0.000, 0.000, 21:30:56.037, 1592537456037
201, 16816.02, 43529.98, 187500.00, 187500.00, -187500.02, -187500.02, -187500.02, -187500.02, 0.000, 0.000, 0.000, 21:30:56.037, 1592537456037
202, 16810.97, 43531.77, 187500.00, 187500.00, -187500.02, -187500.02, -187500.02, -187500.02, 0.000, 0.000, 0.000, 21:30:56.037, 1592537456037
203, 16815.33, 43536.68, 187500.00, 187500.00, -187500.02, -187500.02, -187500.02, -187500.02, 0.000, 0.000, 0.000, 21:30:56.052, 1592537456052
204, 16802.16, 43517.46, 187500.00, 187500.00, -187500.02, -187500.02, -187500.02, -187500.02, 0.000, 0.000, 0.000, 21:30:56.052, 1592537456052
205, 16803.86, 43514.62, 187500.00, 187500.00, -187500.02, -187500.02, -187500.02, -187500.02, 0.000, 0.000, 0.000, 21:30:56.052, 1592537456052
206, 16801.87, 43518.20, 187500.00, 187500.00, -187500.02, -187500.02, -187500.02, -187500.02, 0.012, -0.038, 0.972, 21:30:56.052, 1592537456052
207, 16800.64, 43509.34, 187500.00, 187500.00, -187500.02, -187500.02, -187500.02, -187500.02, 0.000, 0.000, 0.000, 21:30:56.066, 1592537456066
208, 16804.85, 43508.47, 187500.00, 187500.00, -187500.02, -187500.02, -187500.02, -187500.02, 0.000, 0.000, 0.000, 21:30:56.066, 1592537456066
209, 16812.18, 43517.44, 187500.00, 187500.00, -187500.02, -187500.02, -187500.02, -187500.02, 0.000, 0.000, 0.000, 21:30:56.066, 1592537456066
210, 16814.28, 43526.47, 187500.00, 187500.00, -187500.02, -187500.02, -187500.02, -187500.02, 0.000, 0.000, 0.000, 21:30:56.082, 1592537456082
211, 16818.99, 43528.19, 187500.00, 187500.00, -187500.02, -187500.02, -187500.02, -187500.02, 0.000, 0.000, 0.000, 21:30:56.082, 1592537456082
212, 16817.63, 43523.41, 187500.00, 187500.00, -187500.02, -187500.02, -187500.02, -187500.02, 0.000, 0.000, 0.000, 21:30:56.082, 1592537456082
213, 16806.41, 43514.84, 187500.00, 187500.00, -187500.02, -187500.02, -187500.02, -187500.02, 0.000, 0.000, 0.000, 21:30:56.082, 1592537456082
214, 16811.24, 43517.86, 187500.00, 187500.00, -187500.02, -187500.02, -187500.02, -187500.02, 0.000, 0.000, 0.000, 21:30:56.097, 1592537456097
215, 16808.33, 43510.33, 187500.00, 187500.00, -187500.02, -187500.02, -187500.02, -187500.02, 0.000, 0.000, 0.000, 21:30:56.097, 1592537456097
216, 16808.38, 43515.61, 187500.00, 187500.00, -187500.02, -187500.02, -187500.02, -187500.02, 0.012, -0.040, 0.970, 21:30:56.097, 1592537456097
217, 16807.08, 43516.48, 187500.00, 187500.00, -187500.02, -187500.02, -187500.02, -187500.02, 0.000, 0.000, 0.000, 21:30:56.097, 1592537456097
218, 16815.73, 43528.70, 187500.00, 187500.00, -187500.02, -187500.02, -187500.02, -187500.02, 0.000, 0.000, 0.000, 21:30:56.113, 1592537456113
219, 16798.21, 43508.90, 187500.00, 187500.00, -187500.02, -187500.02, -187500.02, -187500.02, 0.000, 0.000, 0.000, 21:30:56.114, 1592537456114
220, 16802.81, 43506.64, 187500.00, 187500.00, -187500.02, -187500.02, -187500.02, -187500.02, 0.000, 0.000, 0.000, 21:30:56.114, 1592537456114
221, 16808.80, 43514.29, 187500.00, 187500.00, -187500.02, -187500.02, -187500.02, -187500.02, 0.000, 0.000, 0.000, 21:30:56.114, 1592537456114
222, 16807.28, 43509.19, 187500.00, 187500.00, -187500.02, -187500.02, -187500.02, -187500.02, 0.000, 0.000, 0.000, 21:30:56.128, 1592537456128
223, 16810.32, 43509.28, 187500.00, 187500.00, -187500.02, -187500.02, -187500.02, -187500.02, 0.000, 0.000, 0.000, 21:30:56.129, 1592537456129
224, 16799.55, 43508.21, 187500.00, 187500.00, -187500.02, -187500.02, -187500.02, -187500.02, 0.000, 0.000, 0.000, 21:30:56.130, 1592537456130
225, 16800.49, 43512.34, 187500.00, 187500.00, -187500.02, -187500.02, -187500.02, -187500.02, 0.000, 0.000, 0.000, 21:30:56.144, 1592537456144
226, 16797.42, 43507.20, 187500.00, 187500.00, -187500.02, -187500.02, -187500.02, -187500.02, 0.010, -0.040, 0.970, 21:30:56.145, 1592537456145
227, 16796.69, 43506.20, 187500.00, 187500.00, -187500.02, -187500.02, -187500.02, -187500.02, 0.000, 0.000, 0.000, 21:30:56.146, 1592537456146
228, 16801.38, 43511.18, 187500.00, 187500.00, -187500.02, -187500.02, -187500.02, -187500.02, 0.000, 0.000, 0.000, 21:30:56.147, 1592537456147
229, 16804.22, 43513.59, 187500.00, 187500.00, -187500.02, -187500.02, -187500.02, -187500.02, 0.000, 0.000, 0.000, 21:30:56.157, 1592537456157
230, 16800.26, 43503.09, 187500.00, 187500.00, -187500.02, -187500.02, -187500.02, -187500.02, 0.000, 0.000, 0.000, 21:30:56.158, 1592537456158
231, 16807.48, 43509.95, 187500.00, 187500.00, -187500.02, -187500.02, -187500.02, -187500.02, 0.000, 0.000, 0.000, 21:30:56.158, 1592537456158
232, 16805.90, 43511.40, 187500.00, 187500.00, -187500.02, -187500.02, -187500.02, -187500.02, 0.000, 0.000, 0.000, 21:30:56.159, 1592537456159
233, 16809.03, 43516.66, 187500.00, 187500.00, -187500.02, -187500.02, -187500.02, -187500.02, 0.000, 0.000, 0.000, 21:30:56.172, 1592537456172
234, 16820.04, 43521.48, 187500.00, 187500.00, -187500.02, -187500.02, -187500.02, -187500.02, 0.000, 0.000, 0.000, 21:30:56.172, 1592537456172
235, 16805.92, 43505.72, 187500.00, 187500.00, -187500.02, -187500.02, -187500.02, -187500.02, 0.000, 0.000, 0.000, 21:30:56.172, 1592537456172
236, 16802.59, 43502.37, 187500.00, 187500.00, -187500.02, -187500.02, -187500.02, -187500.02, 0.012, -0.044, 0.970, 21:30:56.172, 1592537456172
237, 16817.07, 43511.71, 187500.00, 187500.00, -187500.02, -187500.02, -187500.02, -187500.02, 0.000, 0.000, 0.000, 21:30:56.187, 1592537456187
238, 16795.75, 43485.38, 187500.00, 187500.00, -187500.02, -187500.02, -187500.02, -187500.02, 0.000, 0.000, 0.000, 21:30:56.187, 1592537456187
239, 16797.80, 43492.96, 187500.00, 187500.00, -187500.02, -187500.02, -187500.02, -187500.02, 0.000, 0.000, 0.000, 21:30:56.187, 1592537456187
240, 16807.64, 43516.92, 187500.00, 187500.00, -187500.02, -187500.02, -187500.02, -187500.02, 0.000, 0.000, 0.000, 21:30:56.187, 1592537456187
241, 16802.30, 43516.92, 187500.00, 187500.00, -187500.02, -187500.02, -187500.02, -187500.02, 0.000, 0.000, 0.000, 21:30:56.201, 1592537456201
242, 16803.44, 43509.79, 187500.00, 187500.00, -187500.02, -187500.02, -187500.02, -187500.02, 0.000, 0.000, 0.000, 21:30:56.202, 1592537456202
243, 16799.59, 43500.98, 187500.00, 187500.00, -187500.02, -187500.02, -187500.02, -187500.02, 0.000, 0.000, 0.000, 21:30:56.202, 1592537456202
244, 16800.78, 43499.18, 187500.00, 187500.00, -187500.02, -187500.02, -187500.02, -187500.02, 0.000, 0.000, 0.000, 21:30:56.217, 1592537456217
245, 16800.29, 43494.70, 187500.00, 187500.00, -187500.02, -187500.02, -187500.02, -187500.02, 0.014, -0.044, 0.978, 21:30:56.217, 1592537456217
246, 16791.77, 43484.71, 187500.00, 187500.00, -187500.02, -187500.02, -187500.02, -187500.02, 0.000, 0.000, 0.000, 21:30:56.217, 1592537456217
247, 16805.34, 43498.04, 187500.00, 187500.00, -187500.02, -187500.02, -187500.02, -187500.02, 0.000, 0.000, 0.000, 21:30:56.217, 1592537456217
248, 16813.38, 43507.98, 187500.00, 187500.00, -187500.02, -187500.02, -187500.02, -187500.02, 0.000, 0.000, 0.000, 21:30:56.231, 1592537456231
249, 16794.70, 43493.36, 187500.00, 187500.00, -187500.02, -187500.02, -187500.02, -187500.02, 0.000, 0.000, 0.000, 21:30:56.232, 1592537456232
250, 16792.96, 43493.25, 187500.00, 187500.00, -187500.02, -187500.02, -187500.02, -187500.02, 0.000, 0.000, 0.000, 21:30:56.232, 1592537456232
251, 16801.27, 43502.86, 187500.00, 187500.00, -187500.02, -187500.02, -187500.02, -187500.02, 0.000, 0.000, 0.000, 21:30:56.232, 1592537456232
252, 16801.22, 43504.11, 187500.00, 187500.00, -187500.02, -187500.02, -187500.02, -187500.02, 0.000, 0.000, 0.000, 21:30:56.247, 1592537456247
253, 16801.58, 43505.46, 187500.00, 187500.00, -187500.02, -187500.02, -187500.02, -187500.02, 0.000, 0.000, 0.000, 21:30:56.248, 1592537456248
254, 16801.47, 43503.96, 187500.00, 187500.00, -187500.02, -187500.02, -187500.02, -187500.02, 0.000, 0.000, 0.000, 21:30:56.248, 1592537456248
255, 16785.85, 43481.27, 187500.00, 187500.00, -187500.02, -187500.02, -187500.02, -187500.02, 0.016, -0.046, 0.976, 21:30:56.248, 1592537456248
0, 16782.87, 43479.86, 187500.00, 187500.00, -187500.02, -187500.02, -187500.02, -187500.02, 0.000, 0.000, 0.000, 21:30:56.262, 1592537456262
1, 16780.48, 43483.15, 187500.00, 187500.00, -187500.02, -187500.02, -187500.02, -187500.02, 0.000, 0.000, 0.000, 21:30:56.264, 1592537456264
2, 16789.24, 43489.72, 187500.00, 187500.00, -187500.02, -187500.02, -187500.02, -187500.02, 0.000, 0.000, 0.000, 21:30:56.264, 1592537456264
3, 16794.36, 43488.31, 187500.00, 187500.00, -187500.02, -187500.02, -187500.02, -187500.02, 0.000, 0.000, 0.000, 21:30:56.278, 1592537456278
4, 16791.14, 43490.14, 187500.00, 187500.00, -187500.02, -187500.02, -187500.02, -187500.02, 0.000, 0.000, 0.000, 21:30:56.279, 1592537456279
5, 16795.95, 43498.01, 187500.00, 187500.00, -187500.02, -187500.02, -187500.02, -187500.02, 0.000, 0.000, 0.000, 21:30:56.279, 1592537456279
6, 16796.58, 43493.61, 187500.00, 187500.00, -187500.02, -187500.02, -187500.02, -187500.02, 0.000, 0.000, 0.000, 21:30:56.280, 1592537456280
7, 16791.81, 43489.63, 187500.00, 187500.00, -187500.02, -187500.02, -187500.02, -187500.02, 0.000, 0.000, 0.000, 21:30:56.292, 1592537456292
8, 16800.98, 43498.97, 187500.00, 187500.00, -187500.02, -187500.02, -187500.02, -187500.02, 0.000, 0.000, 0.000, 21:30:56.293, 1592537456293
9, 16803.13, 43498.86, 187500.00, 187500.00, -187500.02, -187500.02, -187500.02, -187500.02, 0.016, -0.040, 0.972, 21:30:56.293, 1592537456293
10, 16800.35, 43494.88, 187500.00, 187500.00, -187500.02, -187500.02, -187500.02, -187500.02, 0.000, 0.000, 0.000, 21:30:56.294, 1592537456294
11, 16799.03, 43491.78, 187500.00, 187500.00, -187500.02, -187500.02, -187500.02, -187500.02, 0.000, 0.000, 0.000, 21:30:56.309, 1592537456309
12, 16802.61, 43495.11, 187500.00, 187500.00, -187500.02, -187500.02, -187500.02, -187500.02, 0.000, 0.000, 0.000, 21:30:56.309, 1592537456309
13, 16801.65, 43496.83, 187500.00, 187500.00, -187500.02, -187500.02, -187500.02, -187500.02, 0.000, 0.000, 0.000, 21:30:56.309, 1592537456309
14, 16808.15, 43498.59, 187500.00, 187500.00, -187500.02, -187500.02, -187500.02, -187500.02, 0.000, 0.000, 0.000, 21:30:56.310, 1592537456310
15, 16810.86, 43498.01, 187500.00, 187500.00, -187500.02, -187500.02, -187500.02, -187500.02, 0.000, 0.000, 0.000, 21:30:56.322, 1592537456322
16, 16783.97, 43477.07, 187500.00, 187500.00, -187500.02, -187500.02, -187500.02, -187500.02, 0.000, 0.000, 0.000, 21:30:56.322, 1592537456322
17, 16798.86, 43496.14, 187500.00, 187500.00, -187500.02, -187500.02, -187500.02, -187500.02, 0.000, 0.000, 0.000, 21:30:56.322, 1592537456322
18, 16782.72, 43477.07, 187500.00, 187500.00, -187500.02, -187500.02, -187500.02, -187500.02, 0.000, 0.000, 0.000, 21:30:56.338, 1592537456338
19, 16790.72, 43482.14, 187500.00, 187500.00, -187500.02, -187500.02, -187500.02, -187500.02, 0.016, -0.040, 0.976, 21:30:56.338, 1592537456338
20, 16795.57, 43485.45, 187500.00, 187500.00, -187500.02, -187500.02, -187500.02, -187500.02, 0.000, 0.000, 0.000, 21:30:56.338, 1592537456338
21, 16793.80, 43488.96, 187500.00, 187500.00, -187500.02, -187500.02, -187500.02, -187500.02, 0.000, 0.000, 0.000, 21:30:56.338, 1592537456338
22, 16793.56, 43489.18, 187500.00, 187500.00, -187500.02, -187500.02, -187500.02, -187500.02, 0.000, 0.000, 0.000, 21:30:56.365, 1592537456365
23, 16792.06, 43484.78, 187500.00, 187500.00, -187500.02, -187500.02, -187500.02, -187500.02, 0.000, 0.000, 0.000, 21:30:56.365, 1592537456365
24, 16799.48, 43487.04, 187500.00, 187500.00, -187500.02, -187500.02, -187500.02, -187500.02, 0.000, 0.000, 0.000, 21:30:56.366, 1592537456366
0, 0.00, 0.00, 0.00, 0.00, 0.00, 0.00, 0.00, 0.00, 0.000, 0.000, 0.000, 21:30:56.366, 1592537456366
1, 16796.15, 43481.72, 187500.00, 187500.00, -187500.02, -187500.02, -187500.02, -187500.02, 0.016, -0.050, 0.966, 21:30:56.381, 1592537456381
2, 16769.02, 43530.27, 187500.00, 187500.00, -187500.02, -187500.02, -187500.02, -187500.02, 0.000, 0.000, 0.000, 21:30:56.381, 1592537456381
3, 16780.75, 43568.18, 187500.00, 187500.00, -187500.02, -187500.02, -187500.02, -187500.02, 0.000, 0.000, 0.000, 21:30:56.381, 1592537456381
4, 16786.54, 43569.49, 187500.00, 187500.00, -187500.02, -187500.02, -187500.02, -187500.02, 0.000, 0.000, 0.000, 21:30:56.381, 1592537456381
5, 16795.03, 43478.21, 187500.00, 187500.00, -187500.02, -187500.02, -187500.02, -187500.02, 0.000, 0.000, 0.000, 21:30:56.396, 1592537456396
6, 16799.97, 43399.11, 187500.00, 187500.00, -187500.02, -187500.02, -187500.02, -187500.02, 0.000, 0.000, 0.000, 21:30:56.396, 1592537456396
7, 16802.88, 43372.71, 187500.00, 187500.00, -187500.02, -187500.02, -187500.02, -187500.02, 0.000, 0.000, 0.000, 21:30:56.397, 1592537456397
8, 16784.19, 43354.74, 187500.00, 187500.00, -187500.02, -187500.02, -187500.02, -187500.02, 0.000, 0.000, 0.000, 21:30:56.412, 1592537456412
9, 16773.75, 43442.54, 187500.00, 187500.00, -187500.02, -187500.02, -187500.02, -187500.02, 0.000, 0.000, 0.000, 21:30:56.413, 1592537456413
10, 16773.78, 43526.20, 187500.00, 187500.00, -187500.02, -187500.02, -187500.02, -187500.02, 0.014, -0.038, 0.970, 21:30:56.414, 1592537456414
11, 16771.94, 43553.16, 187500.00, 187500.00, -187500.02, -187500.02, -187500.02, -187500.02, 0.000, 0.000, 0.000, 21:30:56.414, 1592537456414
12, 16771.52, 43549.85, 187500.00, 187500.00, -187500.02, -187500.02, -187500.02, -187500.02, 0.000, 0.000, 0.000, 21:30:56.426, 1592537456426
13, 16769.08, 43446.13, 187500.00, 187500.00, -187500.02, -187500.02, -187500.02, -187500.02, 0.000, 0.000, 0.000, 21:30:56.427, 1592537456427
14, 16769.28, 43361.06, 187500.00, 187500.00, -187500.02, -187500.02, -187500.02, -187500.02, 0.000, 0.000, 0.000, 21:30:56.428, 1592537456428
15, 16794.88, 43343.00, 187500.00, 187500.00, -187500.02, -187500.02, -187500.02, -187500.02, 0.000, 0.000, 0.000, 21:30:56.429, 1592537456429
16, 16794.03, 43337.50, 187500.00, 187500.00, -187500.02, -187500.02, -187500.02, -187500.02, 0.000, 0.000, 0.000, 21:30:56.441, 1592537456441
17, 16779.95, 43433.75, 187500.00, 187500.00, -187500.02, -187500.02, -187500.02, -187500.02, 0.000, 0.000, 0.000, 21:30:56.441, 1592537456441
18, 16782.22, 43525.02, 187500.00, 187500.00, -187500.02, -187500.02, -187500.02, -187500.02, 0.000, 0.000, 0.000, 21:30:56.442, 1592537456442
19, 16770.27, 43547.19, 187500.00, 187500.00, -187500.02, -187500.02, -187500.02, -187500.02, 0.000, 0.000, 0.000, 21:30:56.442, 1592537456442
20, 16777.80, 43555.14, 187500.00, 187500.00, -187500.02, -187500.02, -187500.02, -187500.02, 0.014, -0.044, 0.974, 21:30:56.455, 1592537456455
21, 16780.77, 43451.63, 187500.00, 187500.00, -187500.02, -187500.02, -187500.02, -187500.02, 0.000, 0.000, 0.000, 21:30:56.456, 1592537456456
22, 16796.40, 43376.49, 187500.00, 187500.00, -187500.02, -187500.02, -187500.02, -187500.02, 0.000, 0.000, 0.000, 21:30:56.456, 1592537456456
23, 16787.32, 43336.07, 187500.00, 187500.00, -187500.02, -187500.02, -187500.02, -187500.02, 0.000, 0.000, 0.000, 21:30:56.470, 1592537456470
24, 16780.42, 43324.65, 187500.00, 187500.00, -187500.02, -187500.02, -187500.02, -187500.02, 0.000, 0.000, 0.000, 21:30:56.470, 1592537456470
25, 16792.11, 43429.86, 187500.00, 187500.00, -187500.02, -187500.02, -187500.02, -187500.02, 0.000, 0.000, 0.000, 21:30:56.470, 1592537456470
26, 16783.12, 43505.25, 187500.00, 187500.00, -187500.02, -187500.02, -187500.02, -187500.02, 0.000, 0.000, 0.000, 21:30:56.470, 1592537456470
27, 16766.51, 43531.47, 187500.00, 187500.00, -187500.02, -187500.02, -187500.02, -187500.02, 0.000, 0.000, 0.000, 21:30:56.488, 1592537456488
28, 16774.07, 43542.83, 187500.00, 187500.00, -187500.02, -187500.02, -187500.02, -187500.02, 0.000, 0.000, 0.000, 21:30:56.488, 1592537456488
29, 16767.81, 43432.63, 187500.00, 187500.00, -187500.02, -187500.02, -187500.02, -187500.02, 0.000, 0.000, 0.000, 21:30:56.488, 1592537456488
30, 16768.75, 43345.69, 187500.00, 187500.00, -187500.02, -187500.02, -187500.02, -187500.02, 0.016, -0.040, 0.980, 21:30:56.488, 1592537456488
31, 16783.28, 43330.20, 187500.00, 187500.00, -187500.02, -187500.02, -187500.02, -187500.02, 0.000, 0.000, 0.000, 21:30:56.501, 1592537456501
32, 16783.90, 43331.71, 187500.00, 187500.00, -187500.02, -187500.02, -187500.02, -187500.02, 0.000, 0.000, 0.000, 21:30:56.501, 1592537456501
33, 16776.79, 43425.97, 187500.00, 187500.00, -187500.02, -187500.02, -187500.02, -187500.02, 0.000, 0.000, 0.000, 21:30:56.501, 1592537456501
34, 16797.40, 43527.94, 187500.00, 187500.00, -187500.02, -187500.02, -187500.02, -187500.02, 0.000, 0.000, 0.000, 21:30:56.501, 1592537456501
35, 16789.65, 43550.72, 187500.00, 187500.00, -187500.02, -187500.02, -187500.02, -187500.02, 0.000, 0.000, 0.000, 21:30:56.516, 1592537456516
36, 16768.90, 43528.93, 187500.00, 187500.00, -187500.02, -187500.02, -187500.02, -187500.02, 0.000, 0.000, 0.000, 21:30:56.516, 1592537456516
37, 16779.77, 43442.16, 187500.00, 187500.00, -187500.02, -187500.02, -187500.02, -187500.02, 0.000, 0.000, 0.000, 21:30:56.516, 1592537456516
38, 16784.30, 43364.64, 187500.00, 187500.00, -187500.02, -187500.02, -187500.02, -187500.02, 0.000, 0.000, 0.000, 21:30:56.530, 1592537456530
39, 16788.42, 43334.64, 187500.00, 187500.00, -187500.02, -187500.02, -187500.02, -187500.02, 0.000, 0.000, 0.000, 21:30:56.531, 1592537456531
40, 16794.83, 43341.95, 187500.00, 187500.00, -187500.02, -187500.02, -187500.02, -187500.02, 0.016, -0.040, 0.982, 21:30:56.531, 1592537456531
41, 16787.34, 43434.69, 187500.00, 187500.00, -187500.02, -187500.02, -187500.02, -187500.02, 0.000, 0.000, 0.000, 21:30:56.531, 1592537456531
42, 16774.22, 43507.71, 187500.00, 187500.00, -187500.02, -187500.02, -187500.02, -187500.02, 0.000, 0.000, 0.000, 21:30:56.547, 1592537456547
43, 16781.46, 43548.80, 187500.00, 187500.00, -187500.02, -187500.02, -187500.02, -187500.02, 0.000, 0.000, 0.000, 21:30:56.547, 1592537456547
44, 16788.57, 43554.18, 187500.00, 187500.00, -187500.02, -187500.02, -187500.02, -187500.02, 0.000, 0.000, 0.000, 21:30:56.547, 1592537456547
45, 16801.16, 43466.68, 187500.00, 187500.00, -187500.02, -187500.02, -187500.02, -187500.02, 0.000, 0.000, 0.000, 21:30:56.547, 1592537456547
46, 16790.34, 43374.32, 187500.00, 187500.00, -187500.02, -187500.02, -187500.02, -187500.02, 0.000, 0.000, 0.000, 21:30:56.562, 1592537456562
47, 16788.42, 43335.40, 187500.00, 187500.00, -187500.02, -187500.02, -187500.02, -187500.02, 0.000, 0.000, 0.000, 21:30:56.562, 1592537456562
48, 16798.70, 43341.13, 187500.00, 187500.00, -187500.02, -187500.02, -187500.02, -187500.02, 0.000, 0.000, 0.000, 21:30:56.563, 1592537456563
49, 16789.09, 43432.81, 187500.00, 187500.00, -187500.02, -187500.02, -187500.02, -187500.02, 0.000, 0.000, 0.000, 21:30:56.564, 1592537456564
50, 16796.93, 43521.59, 187500.00, 187500.00, -187500.02, -187500.02, -187500.02, -187500.02, 0.014, -0.044, 0.976, 21:30:56.576, 1592537456576
51, 16783.34, 43538.31, 187500.00, 187500.00, -187500.02, -187500.02, -187500.02, -187500.02, 0.000, 0.000, 0.000, 21:30:56.576, 1592537456576
52, 16776.50, 43526.87, 187500.00, 187500.00, -187500.02, -187500.02, -187500.02, -187500.02, 0.000, 0.000, 0.000, 21:30:56.577, 1592537456577
53, 16782.87, 43432.25, 187500.00, 187500.00, -187500.02, -187500.02, -187500.02, -187500.02, 0.000, 0.000, 0.000, 21:30:56.591, 1592537456591
54, 16775.74, 43342.09, 187500.00, 187500.00, -187500.02, -187500.02, -187500.02, -187500.02, 0.000, 0.000, 0.000, 21:30:56.591, 1592537456591
55, 16779.72, 43309.45, 187500.00, 187500.00, -187500.02, -187500.02, -187500.02, -187500.02, 0.000, 0.000, 0.000, 21:30:56.592, 1592537456592
56, 16789.24, 43318.17, 187500.00, 187500.00, -187500.02, -187500.02, -187500.02, -187500.02, 0.000, 0.000, 0.000, 21:30:56.592, 1592537456592
57, 16790.25, 43423.87, 187500.00, 187500.00, -187500.02, -187500.02, -187500.02, -187500.02, 0.000, 0.000, 0.000, 21:30:56.605, 1592537456605
58, 16776.59, 43486.34, 187500.00, 187500.00, -187500.02, -187500.02, -187500.02, -187500.02, 0.000, 0.000, 0.000, 21:30:56.606, 1592537456606
59, 16780.62, 43528.64, 187500.00, 187500.00, -187500.02, -187500.02, -187500.02, -187500.02, 0.000, 0.000, 0.000, 21:30:56.606, 1592537456606
60, 16777.42, 43538.09, 187500.00, 187500.00, -187500.02, -187500.02, -187500.02, -187500.02, 0.014, -0.048, 0.968, 21:30:56.607, 1592537456607
61, 16775.14, 43427.89, 187500.00, 187500.00, -187500.02, -187500.02, -187500.02, -187500.02, 0.000, 0.000, 0.000, 21:30:56.621, 1592537456621
62, 16784.80, 43341.68, 187500.00, 187500.00, -187500.02, -187500.02, -187500.02, -187500.02, 0.000, 0.000, 0.000, 21:30:56.622, 1592537456622
63, 16788.84, 43310.13, 187500.00, 187500.00, -187500.02, -187500.02, -187500.02, -187500.02, 0.000, 0.000, 0.000, 21:30:56.622, 1592537456622
64, 16791.57, 43311.55, 187500.00, 187500.00, -187500.02, -187500.02, -187500.02, -187500.02, 0.000, 0.000, 0.000, 21:30:56.622, 1592537456622
65, 16787.03, 43414.93, 187500.00, 187500.00, -187500.02, -187500.02, -187500.02, -187500.02, 0.000, 0.000, 0.000, 21:30:56.635, 1592537456635
66, 16777.55, 43493.66, 187500.00, 187500.00, -187500.02, -187500.02, -187500.02, -187500.02, 0.000, 0.000, 0.000, 21:30:56.635, 1592537456635
67, 16763.03, 43504.11, 187500.00, 187500.00, -187500.02, -187500.02, -187500.02, -187500.02, 0.000, 0.000, 0.000, 21:30:56.635, 1592537456635
68, 16768.61, 43504.14, 187500.00, 187500.00, -187500.02, -187500.02, -187500.02, -187500.02, 0.000, 0.000, 0.000, 21:30:56.651, 1592537456651
69, 16786.18, 43421.55, 187500.00, 187500.00, -187500.02, -187500.02, -187500.02, -187500.02, 0.000, 0.000, 0.000, 21:30:56.651, 1592537456651
70, 16779.63, 43337.71, 187500.00, 187500.00, -187500.02, -187500.02, -187500.02, -187500.02, 0.014, -0.048, 0.966, 21:30:56.651, 1592537456651
71, 16777.35, 43306.23, 187500.00, 187500.00, -187500.02, -187500.02, -187500.02, -187500.02, 0.000, 0.000, 0.000, 21:30:56.651, 1592537456651
72, 16787.99, 43315.87, 187500.00, 187500.00, -187500.02, -187500.02, -187500.02, -187500.02, 0.000, 0.000, 0.000, 21:30:56.665, 1592537456665
73, 16790.56, 43414.66, 187500.00, 187500.00, -187500.02, -187500.02, -187500.02, -187500.02, 0.000, 0.000, 0.000, 21:30:56.665, 1592537456665
74, 16800.89, 43503.24, 187500.00, 187500.00, -187500.02, -187500.02, -187500.02, -187500.02, 0.000, 0.000, 0.000, 21:30:56.666, 1592537456666
75, 16802.90, 43535.96, 187500.00, 187500.00, -187500.02, -187500.02, -187500.02, -187500.02, 0.000, 0.000, 0.000, 21:30:56.666, 1592537456666
76, 16799.97, 43533.29, 187500.00, 187500.00, -187500.02, -187500.02, -187500.02, -187500.02, 0.000, 0.000, 0.000, 21:30:56.681, 1592537456681
77, 16781.87, 43413.41, 187500.00, 187500.00, -187500.02, -187500.02, -187500.02, -187500.02, 0.000, 0.000, 0.000, 21:30:56.681, 1592537456681
78, 16785.44, 43329.95, 187500.00, 187500.00, -187500.02, -187500.02, -187500.02, -187500.02, 0.000, 0.000, 0.000, 21:30:56.682, 1592537456682
79, 16791.75, 43310.28, 187500.00, 187500.00, -187500.02, -187500.02, -187500.02, -187500.02, 0.000, 0.000, 0.000, 21:30:56.682, 1592537456682
80, 16802.45, 43325.64, 187500.00, 187500.00, -187500.02, -187500.02, -187500.02, -187500.02, 0.018, -0.040, 0.972, 21:30:56.696, 1592537456696
81, 16806.10, 43426.46, 187500.00, 187500.00, -187500.02, -187500.02, -187500.02, -187500.02, 0.000, 0.000, 0.000, 21:30:56.696, 1592537456696
82, 16810.50, 43509.75, 187500.00, 187500.00, -187500.02, -187500.02, -187500.02, -187500.02, 0.000, 0.000, 0.000, 21:30:56.696, 1592537456696
83, 16796.64, 43526.31, 187500.00, 187500.00, -187500.02, -187500.02, -187500.02, -187500.02, 0.000, 0.000, 0.000, 21:30:56.696, 1592537456696
84, 16771.72, 43498.04, 187500.00, 187500.00, -187500.02, -187500.02, -187500.02, -187500.02, 0.000, 0.000, 0.000, 21:30:56.712, 1592537456712
85, 16779.81, 43407.02, 187500.00, 187500.00, -187500.02, -187500.02, -187500.02, -187500.02, 0.000, 0.000, 0.000, 21:30:56.713, 1592537456713
86, 16794.34, 43344.84, 187500.00, 187500.00, -187500.02, -187500.02, -187500.02, -187500.02, 0.000, 0.000, 0.000, 21:30:56.713, 1592537456713
87, 16795.14, 43308.76, 187500.00, 187500.00, -187500.02, -187500.02, -187500.02, -187500.02, 0.000, 0.000, 0.000, 21:30:56.726, 1592537456726
88, 16804.69, 43312.52, 187500.00, 187500.00, -187500.02, -187500.02, -187500.02, -187500.02, 0.000, 0.000, 0.000, 21:30:56.727, 1592537456727
89, 16794.41, 43410.57, 187500.00, 187500.00, -187500.02, -187500.02, -187500.02, -187500.02, 0.000, 0.000, 0.000, 21:30:56.728, 1592537456728
90, 16791.46, 43497.34, 187500.00, 187500.00, -187500.02, -187500.02, -187500.02, -187500.02, 0.018, -0.040, 0.972, 21:30:56.728, 1592537456728
91, 16783.21, 43517.57, 187500.00, 187500.00, -187500.02, -187500.02, -187500.02, -187500.02, 0.000, 0.000, 0.000, 21:30:56.741, 1592537456741
92, 16772.41, 43491.87, 187500.00, 187500.00, -187500.02, -187500.02, -187500.02, -187500.02, 0.000, 0.000, 0.000, 21:30:56.742, 1592537456742
93, 16784.73, 43403.31, 187500.00, 187500.00, -187500.02, -187500.02, -187500.02, -187500.02, 0.000, 0.000, 0.000, 21:30:56.742, 1592537456742
94, 16794.50, 43347.14, 187500.00, 187500.00, -187500.02, -187500.02, -187500.02, -187500.02, 0.000, 0.000, 0.000, 21:30:56.742, 1592537456742
95, 16789.15, 43311.96, 187500.00, 187500.00, -187500.02, -187500.02, -187500.02, -187500.02, 0.000, 0.000, 0.000, 21:30:56.757, 1592537456757
96, 16784.88, 43285.58, 187500.00, 187500.00, -187500.02, -187500.02, -187500.02, -187500.02, 0.000, 0.000, 0.000, 21:30:56.757, 1592537456757
97, 16786.36, 43379.73, 187500.00, 187500.00, -187500.02, -187500.02, -187500.02, -187500.02, 0.000, 0.000, 0.000, 21:30:56.758, 1592537456758
98, 16798.30, 43499.49, 187500.00, 187500.00, -187500.02, -187500.02, -187500.02, -187500.02, 0.000, 0.000, 0.000, 21:30:56.759, 1592537456759
99, 16790.16, 43534.11, 187500.00, 187500.00, -187500.02, -187500.02, -187500.02, -187500.02, 0.020, -0.038, 0.972, 21:30:56.770, 1592537456770
100, 16774.71, 43496.11, 187500.00, 187500.00, -187500.02, -187500.02, -187500.02, -187500.02, 0.000, 0.000, 0.000, 21:30:56.770, 1592537456770
101, 16774.54, 43387.66, 187500.00, 187500.00, -187500.02, -187500.02, -187500.02, -187500.02, 0.000, 0.000, 0.000, 21:30:56.770, 1592537456770
102, 16782.02, 43328.90, 187500.00, 187500.00, -187500.02, -187500.02, -187500.02, -187500.02, 0.000, 0.000, 0.000, 21:30:56.786, 1592537456786
103, 16801.18, 43323.65, 187500.00, 187500.00, -187500.02, -187500.02, -187500.02, -187500.02, 0.000, 0.000, 0.000, 21:30:56.786, 1592537456786
104, 16793.00, 43296.29, 187500.00, 187500.00, -187500.02, -187500.02, -187500.02, -187500.02, 0.000, 0.000, 0.000, 21:30:56.786, 1592537456786
105, 16778.47, 43363.01, 187500.00, 187500.00, -187500.02, -187500.02, -187500.02, -187500.02, 0.000, 0.000, 0.000, 21:30:56.787, 1592537456787
106, 16782.90, 43464.57, 187500.00, 187500.00, -187500.02, -187500.02, -187500.02, -187500.02, 0.000, 0.000, 0.000, 21:30:56.801, 1592537456801
107, 16793.63, 43531.88, 187500.00, 187500.00, -187500.02, -187500.02, -187500.02, -187500.02, 0.000, 0.000, 0.000, 21:30:56.801, 1592537456801
108, 16780.24, 43502.44, 187500.00, 187500.00, -187500.02, -187500.02, -187500.02, -187500.02, 0.000, 0.000, 0.000, 21:30:56.801, 1592537456801
109, 16766.13, 43366.43, 187500.00, 187500.00, -187500.02, -187500.02, -187500.02, -187500.02, 0.010, -0.040, 0.972, 21:30:56.801, 1592537456801
110, 16789.54, 43313.79, 187500.00, 187500.00, -187500.02, -187500.02, -187500.02, -187500.02, 0.000, 0.000, 0.000, 21:30:56.817, 1592537456817
111, 16808.36, 43315.96, 187500.00, 187500.00, -187500.02, -187500.02, -187500.02, -187500.02, 0.000, 0.000, 0.000, 21:30:56.817, 1592537456817
112, 16806.05, 43308.02, 187500.00, 187500.00, -187500.02, -187500.02, -187500.02, -187500.02, 0.000, 0.000, 0.000, 21:30:56.817, 1592537456817
113, 16785.29, 43365.64, 187500.00, 187500.00, -187500.02, -187500.02, -187500.02, -187500.02, 0.000, 0.000, 0.000, 21:30:56.817, 1592537456817
114, 16776.50, 43439.43, 187500.00, 187500.00, -187500.02, -187500.02, -187500.02, -187500.02, 0.000, 0.000, 0.000, 21:30:56.830, 1592537456830
115, 16790.32, 43513.41, 187500.00, 187500.00, -187500.02, -187500.02, -187500.02, -187500.02, 0.000, 0.000, 0.000, 21:30:56.830, 1592537456830
116, 16780.13, 43506.06, 187500.00, 187500.00, -187500.02, -187500.02, -187500.02, -187500.02, 0.000, 0.000, 0.000, 21:30:56.830, 1592537456830
117, 16770.92, 43370.54, 187500.00, 187500.00, -187500.02, -187500.02, -187500.02, -187500.02, 0.000, 0.000, 0.000, 21:30:56.847, 1592537456847
118, 16795.77, 43301.74, 187500.00, 187500.00, -187500.02, -187500.02, -187500.02, -187500.02, 0.000, 0.000, 0.000, 21:30:56.848, 1592537456848
119, 16810.17, 43303.84, 187500.00, 187500.00, -187500.02, -187500.02, -187500.02, -187500.02, 0.014, -0.042, 0.974, 21:30:56.848, 1592537456848
120, 16802.65, 43302.32, 187500.00, 187500.00, -187500.02, -187500.02, -187500.02, -187500.02, 0.000, 0.000, 0.000, 21:30:56.848, 1592537456848
121, 16801.31, 43376.31, 187500.00, 187500.00, -187500.02, -187500.02, -187500.02, -187500.02, 0.000, 0.000, 0.000, 21:30:56.862, 1592537456862
122, 16799.15, 43450.02, 187500.00, 187500.00, -187500.02, -187500.02, -187500.02, -187500.02, 0.000, 0.000, 0.000, 21:30:56.863, 1592537456863
123, 16801.92, 43509.19, 187500.00, 187500.00, -187500.02, -187500.02, -187500.02, -187500.02, 0.000, 0.000, 0.000, 21:30:56.863, 1592537456863
124, 16800.76, 43517.26, 187500.00, 187500.00, -187500.02, -187500.02, -187500.02, -187500.02, 0.000, 0.000, 0.000, 21:30:56.863, 1592537456863
125, 16776.46, 43370.96, 187500.00, 187500.00, -187500.02, -187500.02, -187500.02, -187500.02, 0.000, 0.000, 0.000, 21:30:56.877, 1592537456877
126, 16783.99, 43282.54, 187500.00, 187500.00, -187500.02, -187500.02, -187500.02, -187500.02, 0.000, 0.000, 0.000, 21:30:56.878, 1592537456878
127, 16797.00, 43284.06, 187500.00, 187500.00, -187500.02, -187500.02, -187500.02, -187500.02, 0.000, 0.000, 0.000, 21:30:56.878, 1592537456878
128, 16803.79, 43307.96, 187500.00, 187500.00, -187500.02, -187500.02, -187500.02, -187500.02, 0.000, 0.000, 0.000, 21:30:56.879, 1592537456879
129, 16795.50, 43383.91, 187500.00, 187500.00, -187500.02, -187500.02, -187500.02, -187500.02, 0.018, -0.042, 0.972, 21:30:56.891, 1592537456891
130, 16789.40, 43444.04, 187500.00, 187500.00, -187500.02, -187500.02, -187500.02, -187500.02, 0.000, 0.000, 0.000, 21:30:56.892, 1592537456892
131, 16792.60, 43493.61, 187500.00, 187500.00, -187500.02, -187500.02, -187500.02, -187500.02, 0.000, 0.000, 0.000, 21:30:56.892, 1592537456892
132, 16800.17, 43521.17, 187500.00, 187500.00, -187500.02, -187500.02, -187500.02, -187500.02, 0.000, 0.000, 0.000, 21:30:56.906, 1592537456906
133, 16788.71, 43399.00, 187500.00, 187500.00, -187500.02, -187500.02, -187500.02, -187500.02, 0.000, 0.000, 0.000, 21:30:56.906, 1592537456906
134, 16791.50, 43294.50, 187500.00, 187500.00, -187500.02, -187500.02, -187500.02, -187500.02, 0.000, 0.000, 0.000, 21:30:56.906, 1592537456906
135, 16798.81, 43272.39, 187500.00, 187500.00, -187500.02, -187500.02, -187500.02, -187500.02, 0.000, 0.000, 0.000, 21:30:56.907, 1592537456907
136, 16817.47, 43311.49, 187500.00, 187500.00, -187500.02, -187500.02, -187500.02, -187500.02, 0.000, 0.000, 0.000, 21:30:56.921, 1592537456921
137, 16810.14, 43399.71, 187500.00, 187500.00, -187500.02, -187500.02, -187500.02, -187500.02, 0.000, 0.000, 0.000, 21:30:56.922, 1592537456922
138, 16786.23, 43433.33, 187500.00, 187500.00, -187500.02, -187500.02, -187500.02, -187500.02, 0.000, 0.000, 0.000, 21:30:56.922, 1592537456922
139, 16793.18, 43472.55, 187500.00, 187500.00, -187500.02, -187500.02, -187500.02, -187500.02, 0.022, -0.042, 0.976, 21:30:56.922, 1592537456922
140, 16803.08, 43509.37, 187500.00, 187500.00, -187500.02, -187500.02, -187500.02, -187500.02, 0.000, 0.000, 0.000, 21:30:56.936, 1592537456936
141, 16805.36, 43413.95, 187500.00, 187500.00, -187500.02, -187500.02, -187500.02, -187500.02, 0.000, 0.000, 0.000, 21:30:56.936, 1592537456936
142, 16802.28, 43303.87, 187500.00, 187500.00, -187500.02, -187500.02, -187500.02, -187500.02, 0.000, 0.000, 0.000, 21:30:56.936, 1592537456936
143, 16811.71, 43278.32, 187500.00, 187500.00, -187500.02, -187500.02, -187500.02, -187500.02, 0.000, 0.000, 0.000, 21:30:56.936, 1592537456936
144, 16801.67, 43284.93, 187500.00, 187500.00, -187500.02, -187500.02, -187500.02, -187500.02, 0.000, 0.000, 0.000, 21:30:56.951, 1592537456951
145, 16804.82, 43391.39, 187500.00, 187500.00, -187500.02, -187500.02, -187500.02, -187500.02, 0.000, 0.000, 0.000, 21:30:56.951, 1592537456951
146, 16794.50, 43436.39, 187500.00, 187500.00, -187500.02, -187500.02, -187500.02, -187500.02, 0.000, 0.000, 0.000, 21:30:56.951, 1592537456951
147, 16782.65, 43446.96, 187500.00, 187500.00, -187500.02, -187500.02, -187500.02, -187500.02, 0.000, 0.000, 0.000, 21:30:56.965, 1592537456965
148, 16795.03, 43485.41, 187500.00, 187500.00, -187500.02, -187500.02, -187500.02, -187500.02, 0.000, 0.000, 0.000, 21:30:56.966, 1592537456966
149, 16805.14, 43405.90, 187500.00, 187500.00, -187500.02, -187500.02, -187500.02, -187500.02, 0.020, -0.044, 0.970, 21:30:56.966, 1592537456966
150, 16801.47, 43296.31, 187500.00, 187500.00, -187500.02, -187500.02, -187500.02, -187500.02, 0.000, 0.000, 0.000, 21:30:56.966, 1592537456966
151, 16793.11, 43232.41, 187500.00, 187500.00, -187500.02, -187500.02, -187500.02, -187500.02, 0.000, 0.000, 0.000, 21:30:56.981, 1592537456981
152, 16803.57, 43260.44, 187500.00, 187500.00, -187500.02, -187500.02, -187500.02, -187500.02, 0.000, 0.000, 0.000, 21:30:56.982, 1592537456982
153, 16805.79, 43388.18, 187500.00, 187500.00, -187500.02, -187500.02, -187500.02, -187500.02, 0.000, 0.000, 0.000, 21:30:56.982, 1592537456982
154, 16797.31, 43449.82, 187500.00, 187500.00, -187500.02, -187500.02, -187500.02, -187500.02, 0.000, 0.000, 0.000, 21:30:56.982, 1592537456982
155, 16792.75, 43449.91, 187500.00, 187500.00, -187500.02, -187500.02, -187500.02, -187500.02, 0.000, 0.000, 0.000, 21:30:56.997, 1592537456997
156, 16805.79, 43474.84, 187500.00, 187500.00, -187500.02, -187500.02, -187500.02, -187500.02, 0.000, 0.000, 0.000, 21:30:56.997, 1592537456997
157, 16810.37, 43404.76, 187500.00, 187500.00, -187500.02, -187500.02, -187500.02, -187500.02, 0.000, 0.000, 0.000, 21:30:56.997, 1592537456997
158, 16802.41, 43300.40, 187500.00, 187500.00, -187500.02, -187500.02, -187500.02, -187500.02, 0.000, 0.000, 0.000, 21:30:56.997, 1592537456997
159, 16805.58, 43249.71, 187500.00, 187500.00, -187500.02, -187500.02, -187500.02, -187500.02, 0.026, -0.044, 0.976, 21:30:57.012, 1592537457012
160, 16816.18, 43271.43, 187500.00, 187500.00, -187500.02, -187500.02, -187500.02, -187500.02, 0.000, 0.000, 0.000, 21:30:57.013, 1592537457013
161, 16799.30, 43379.15, 187500.00, 187500.00, -187500.02, -187500.02, -187500.02, -187500.02, 0.000, 0.000, 0.000, 21:30:57.013, 1592537457013
162, 16781.94, 43436.70, 187500.00, 187500.00, -187500.02, -187500.02, -187500.02, -187500.02, 0.000, 0.000, 0.000, 21:30:57.026, 1592537457026
163, 16783.23, 43439.41, 187500.00, 187500.00, -187500.02, -187500.02, -187500.02, -187500.02, 0.000, 0.000, 0.000, 21:30:57.027, 1592537457027
164, 16806.86, 43457.69, 187500.00, 187500.00, -187500.02, -187500.02, -187500.02, -187500.02, 0.000, 0.000, 0.000, 21:30:57.027, 1592537457027
165, 16816.80, 43393.21, 187500.00, 187500.00, -187500.02, -187500.02, -187500.02, -187500.02, 0.000, 0.000, 0.000, 21:30:57.028, 1592537457028
166, 16809.36, 43307.15, 187500.00, 187500.00, -187500.02, -187500.02, -187500.02, -187500.02, 0.000, 0.000, 0.000, 21:30:57.042, 1592537457042
167, 16800.58, 43239.38, 187500.00, 187500.00, -187500.02, -187500.02, -187500.02, -187500.02, 0.000, 0.000, 0.000, 21:30:57.042, 1592537457042
168, 16805.92, 43237.26, 187500.00, 187500.00, -187500.02, -187500.02, -187500.02, -187500.02, 0.000, 0.000, 0.000, 21:30:57.043, 1592537457043
169, 16805.07, 43358.58, 187500.00, 187500.00, -187500.02, -187500.02, -187500.02, -187500.02, 0.020, -0.040, 0.976, 21:30:57.043, 1592537457043
170, 16810.48, 43452.24, 187500.00, 187500.00, -187500.02, -187500.02, -187500.02, -187500.02, 0.000, 0.000, 0.000, 21:30:57.057, 1592537457057
171, 16800.87, 43451.75, 187500.00, 187500.00, -187500.02, -187500.02, -187500.02, -187500.02, 0.000, 0.000, 0.000, 21:30:57.058, 1592537457058
172, 16801.81, 43445.93, 187500.00, 187500.00, -187500.02, -187500.02, -187500.02, -187500.02, 0.000, 0.000, 0.000, 21:30:57.059, 1592537457059
173, 16805.18, 43371.93, 187500.00, 187500.00, -187500.02, -187500.02, -187500.02, -187500.02, 0.000, 0.000, 0.000, 21:30:57.059, 1592537457059
174, 16797.07, 43294.19, 187500.00, 187500.00, -187500.02, -187500.02, -187500.02, -187500.02, 0.000, 0.000, 0.000, 21:30:57.072, 1592537457072
175, 16770.27, 43213.48, 187500.00, 187500.00, -187500.02, -187500.02, -187500.02, -187500.02, 0.000, 0.000, 0.000, 21:30:57.072, 1592537457072
176, 16768.46, 43197.16, 187500.00, 187500.00, -187500.02, -187500.02, -187500.02, -187500.02, 0.000, 0.000, 0.000, 21:30:57.072, 1592537457072
177, 16796.24, 43338.18, 187500.00, 187500.00, -187500.02, -187500.02, -187500.02, -187500.02, 0.000, 0.000, 0.000, 21:30:57.086, 1592537457086
178, 16810.41, 43448.41, 187500.00, 187500.00, -187500.02, -187500.02, -187500.02, -187500.02, 0.016, -0.040, 0.968, 21:30:57.086, 1592537457086
179, 16784.57, 43440.41, 187500.00, 187500.00, -187500.02, -187500.02, -187500.02, -187500.02, 0.000, 0.000, 0.000, 21:30:57.087, 1592537457087
180, 16780.88, 43419.18, 187500.00, 187500.00, -187500.02, -187500.02, -187500.02, -187500.02, 0.000, 0.000, 0.000, 21:30:57.087, 1592537457087
181, 16791.88, 43343.38, 187500.00, 187500.00, -187500.02, -187500.02, -187500.02, -187500.02, 0.000, 0.000, 0.000, 21:30:57.100, 1592537457100
182, 16799.55, 43288.98, 187500.00, 187500.00, -187500.02, -187500.02, -187500.02, -187500.02, 0.000, 0.000, 0.000, 21:30:57.101, 1592537457101
183, 16792.37, 43236.97, 187500.00, 187500.00, -187500.02, -187500.02, -187500.02, -187500.02, 0.000, 0.000, 0.000, 21:30:57.101, 1592537457101
184, 16793.40, 43212.65, 187500.00, 187500.00, -187500.02, -187500.02, -187500.02, -187500.02, 0.000, 0.000, 0.000, 21:30:57.101, 1592537457101
185, 16804.04, 43333.41, 187500.00, 187500.00, -187500.02, -187500.02, -187500.02, -187500.02, 0.000, 0.000, 0.000, 21:30:57.117, 1592537457117
186, 16802.23, 43436.57, 187500.00, 187500.00, -187500.02, -187500.02, -187500.02, -187500.02, 0.000, 0.000, 0.000, 21:30:57.117, 1592537457117
187, 16797.25, 43461.78, 187500.00, 187500.00, -187500.02, -187500.02, -187500.02, -187500.02, 0.000, 0.000, 0.000, 21:30:57.117, 1592537457117
188, 16791.93, 43431.76, 187500.00, 187500.00, -187500.02, -187500.02, -187500.02, -187500.02, 0.014, -0.036, 0.972, 21:30:57.117, 1592537457117
189, 16802.10, 43343.12, 187500.00, 187500.00, -187500.02, -187500.02, -187500.02, -187500.02, 0.000, 0.000, 0.000, 21:30:57.131, 1592537457131
190, 16804.80, 43284.66, 187500.00, 187500.00, -187500.02, -187500.02, -187500.02, -187500.02, 0.000, 0.000, 0.000, 21:30:57.131, 1592537457131
191, 16798.99, 43245.15, 187500.00, 187500.00, -187500.02, -187500.02, -187500.02, -187500.02, 0.000, 0.000, 0.000, 21:30:57.131, 1592537457131
192, 16793.89, 43214.62, 187500.00, 187500.00, -187500.02, -187500.02, -187500.02, -187500.02, 0.000, 0.000, 0.000, 21:30:57.147, 1592537457147
193, 16793.40, 43312.45, 187500.00, 187500.00, -187500.02, -187500.02, -187500.02, -187500.02, 0.000, 0.000, 0.000, 21:30:57.147, 1592537457147
194, 16799.50, 43427.88, 187500.00, 187500.00, -187500.02, -187500.02, -187500.02, -187500.02, 0.000, 0.000, 0.000, 21:30:57.147, 1592537457147
195, 16799.97, 43469.71, 187500.00, 187500.00, -187500.02, -187500.02, -187500.02, -187500.02, 0.000, 0.000, 0.000, 21:30:57.147, 1592537457147
196, 16794.05, 43437.89, 187500.00, 187500.00, -187500.02, -187500.02, -187500.02, -187500.02, 0.000, 0.000, 0.000, 21:30:57.162, 1592537457162
197, 16793.16, 43325.37, 187500.00, 187500.00, -187500.02, -187500.02, -187500.02, -187500.02, 0.000, 0.000, 0.000, 21:30:57.162, 1592537457162
198, 16805.87, 43274.68, 187500.00, 187500.00, -187500.02, -187500.02, -187500.02, -187500.02, 0.010, -0.036, 0.976, 21:30:57.163, 1592537457163
199, 16815.62, 43263.41, 187500.00, 187500.00, -187500.02, -187500.02, -187500.02, -187500.02, 0.000, 0.000, 0.000, 21:30:57.163, 1592537457163
200, 16805.14, 43232.45, 187500.00, 187500.00, -187500.02, -187500.02, -187500.02, -187500.02, 0.000, 0.000, 0.000, 21:30:57.177, 1592537457177
201, 16789.65, 43301.59, 187500.00, 187500.00, -187500.02, -187500.02, -187500.02, -187500.02, 0.000, 0.000, 0.000, 21:30:57.178, 1592537457178
202, 16804.89, 43415.42, 187500.00, 187500.00, -187500.02, -187500.02, -187500.02, -187500.02, 0.000, 0.000, 0.000, 21:30:57.179, 1592537457179
203, 16816.74, 43477.27, 187500.00, 187500.00, -187500.02, -187500.02, -187500.02, -187500.02, 0.000, 0.000, 0.000, 21:30:57.179, 1592537457179
204, 16812.49, 43453.98, 187500.00, 187500.00, -187500.02, -187500.02, -187500.02, -187500.02, 0.000, 0.000, 0.000, 21:30:57.192, 1592537457192
205, 16797.85, 43318.08, 187500.00, 187500.00, -187500.02, -187500.02, -187500.02, -187500.02, 0.000, 0.000, 0.000, 21:30:57.192, 1592537457192
206, 16800.42, 43248.30, 187500.00, 187500.00, -187500.02, -187500.02, -187500.02, -187500.02, 0.000, 0.000, 0.000, 21:30:57.192, 1592537457192
207, 16797.13, 43229.46, 187500.00, 187500.00, -187500.02, -187500.02, -187500.02, -187500.02, 0.000, 0.000, 0.000, 21:30:57.192, 1592537457192
208, 16780.15, 43209.50, 187500.00, 187500.00, -187500.02, -187500.02, -187500.02, -187500.02, 0.016, -0.042, 0.972, 21:30:57.209, 1592537457209
209, 16774.96, 43280.46, 187500.00, 187500.00, -187500.02, -187500.02, -187500.02, -187500.02, 0.000, 0.000, 0.000, 21:30:57.209, 1592537457209
210, 16792.93, 43385.38, 187500.00, 187500.00, -187500.02, -187500.02, -187500.02, -187500.02, 0.000, 0.000, 0.000, 21:30:57.209, 1592537457209
211, 16800.55, 43455.72, 187500.00, 187500.00, -187500.02, -187500.02, -187500.02, -187500.02, 0.000, 0.000, 0.000, 21:30:57.221, 1592537457221
212, 16784.21, 43435.54, 187500.00, 187500.00, -187500.02, -187500.02, -187500.02, -187500.02, 0.000, 0.000, 0.000, 21:30:57.222, 1592537457222
213, 16784.82, 43304.04, 187500.00, 187500.00, -187500.02, -187500.02, -187500.02, -187500.02, 0.000, 0.000, 0.000, 21:30:57.222, 1592537457222
214, 16802.19, 43235.00, 187500.00, 187500.00, -187500.02, -187500.02, -187500.02, -187500.02, 0.000, 0.000, 0.000, 21:30:57.222, 1592537457222
215, 16800.22, 43222.48, 187500.00, 187500.00, -187500.02, -187500.02, -187500.02, -187500.02, 0.000, 0.000, 0.000, 21:30:57.236, 1592537457236
216, 16792.62, 43218.59, 187500.00, 187500.00, -187500.02, -187500.02, -187500.02, -187500.02, 0.000, 0.000, 0.000, 21:30:57.236, 1592537457236
217, 16781.69, 43285.25, 187500.00, 187500.00, -187500.02, -187500.02, -187500.02, -187500.02, 0.000, 0.000, 0.000, 21:30:57.236, 1592537457236
218, 16797.42, 43382.84, 187500.00, 187500.00, -187500.02, -187500.02, -187500.02, -187500.02, 0.014, -0.044, 0.972, 21:30:57.236, 1592537457236
219, 16816.87, 43456.84, 187500.00, 187500.00, -187500.02, -187500.02, -187500.02, -187500.02, 0.000, 0.000, 0.000, 21:30:57.252, 1592537457252
220, 16784.15, 43429.95, 187500.00, 187500.00, -187500.02, -187500.02, -187500.02, -187500.02, 0.000, 0.000, 0.000, 21:30:57.252, 1592537457252
221, 16775.45, 43296.09, 187500.00, 187500.00, -187500.02, -187500.02, -187500.02, -187500.02, 0.000, 0.000, 0.000, 21:30:57.252, 1592537457252
222, 16782.16, 43208.16, 187500.00, 187500.00, -187500.02, -187500.02, -187500.02, -187500.02, 0.000, 0.000, 0.000, 21:30:57.252, 1592537457252
223, 16785.20, 43200.24, 187500.00, 187500.00, -187500.02, -187500.02, -187500.02, -187500.02, 0.000, 0.000, 0.000, 21:30:57.265, 1592537457265
224, 16800.00, 43230.42, 187500.00, 187500.00, -187500.02, -187500.02, -187500.02, -187500.02, 0.000, 0.000, 0.000, 21:30:57.265, 1592537457265
225, 16775.54, 43287.59, 187500.00, 187500.00, -187500.02, -187500.02, -187500.02, -187500.02, 0.000, 0.000, 0.000, 21:30:57.266, 1592537457266
226, 16771.63, 43348.19, 187500.00, 187500.00, -187500.02, -187500.02, -187500.02, -187500.02, 0.000, 0.000, 0.000, 21:30:57.282, 1592537457282
227, 16786.34, 43410.84, 187500.00, 187500.00, -187500.02, -187500.02, -187500.02, -187500.02, 0.000, 0.000, 0.000, 21:30:57.282, 1592537457282
228, 16795.32, 43439.41, 187500.00, 187500.00, -187500.02, -187500.02, -187500.02, -187500.02, 0.018, -0.046, 0.972, 21:30:57.282, 1592537457282
229, 16782.49, 43305.03, 187500.00, 187500.00, -187500.02, -187500.02, -187500.02, -187500.02, 0.000, 0.000, 0.000, 21:30:57.282, 1592537457282
230, 16782.40, 43197.27, 187500.00, 187500.00, -187500.02, -187500.02, -187500.02, -187500.02, 0.000, 0.000, 0.000, 21:30:57.298, 1592537457298
231, 16797.92, 43190.83, 187500.00, 187500.00, -187500.02, -187500.02, -187500.02, -187500.02, 0.000, 0.000, 0.000, 21:30:57.298, 1592537457298
232, 16806.92, 43217.92, 187500.00, 187500.00, -187500.02, -187500.02, -187500.02, -187500.02, 0.000, 0.000, 0.000, 21:30:57.298, 1592537457298
233, 16794.36, 43304.89, 187500.00, 187500.00, -187500.02, -187500.02, -187500.02, -187500.02, 0.000, 0.000, 0.000, 21:30:57.299, 1592537457299
234, 16775.74, 43349.17, 187500.00, 187500.00, -187500.02, -187500.02, -187500.02, -187500.02, 0.000, 0.000, 0.000, 21:30:57.313, 1592537457313
235, 16792.28, 43403.53, 187500.00, 187500.00, -187500.02, -187500.02, -187500.02, -187500.02, 0.000, 0.000, 0.000, 21:30:57.313, 1592537457313
236, 16787.28, 43425.57, 187500.00, 187500.00, -187500.02, -187500.02, -187500.02, -187500.02, 0.000, 0.000, 0.000, 21:30:57.314, 1592537457314
237, 16791.32, 43326.15, 187500.00, 187500.00, -187500.02, -187500.02, -187500.02, -187500.02, 0.000, 0.000, 0.000, 21:30:57.315, 1592537457315
238, 16793.02, 43218.91, 187500.00, 187500.00, -187500.02, -187500.02, -187500.02, -187500.02, 0.020, -0.042, 0.976, 21:30:57.326, 1592537457326
239, 16792.22, 43186.79, 187500.00, 187500.00, -187500.02, -187500.02, -187500.02, -187500.02, 0.000, 0.000, 0.000, 21:30:57.327, 1592537457327
240, 16791.59, 43210.41, 187500.00, 187500.00, -187500.02, -187500.02, -187500.02, -187500.02, 0.000, 0.000, 0.000, 21:30:57.327, 1592537457327
241, 16788.08, 43308.76, 187500.00, 187500.00, -187500.02, -187500.02, -187500.02, -187500.02, 0.000, 0.000, 0.000, 21:30:57.342, 1592537457342
242, 16787.34, 43367.97, 187500.00, 187500.00, -187500.02, -187500.02, -187500.02, -187500.02, 0.000, 0.000, 0.000, 21:30:57.342, 1592537457342
243, 16788.26, 43399.11, 187500.00, 187500.00, -187500.02, -187500.02, -187500.02, -187500.02, 0.000, 0.000, 0.000, 21:30:57.343, 1592537457343
244, 16803.50, 43434.82, 187500.00, 187500.00, -187500.02, -187500.02, -187500.02, -187500.02, 0.000, 0.000, 0.000, 21:30:57.343, 1592537457343
245, 16799.32, 43342.73, 187500.00, 187500.00, -187500.02, -187500.02, -187500.02, -187500.02, 0.000, 0.000, 0.000, 21:30:57.357, 1592537457357
246, 16794.21, 43227.04, 187500.00, 187500.00, -187500.02, -187500.02, -187500.02, -187500.02, 0.000, 0.000, 0.000, 21:30:57.358, 1592537457358
247, 16793.71, 43181.40, 187500.00, 187500.00, -187500.02, -187500.02, -187500.02, -187500.02, 0.000, 0.000, 0.000, 21:30:57.359, 1592537457359
248, 16798.12, 43207.64, 187500.00, 187500.00, -187500.02, -187500.02, -187500.02, -187500.02, 0.012, -0.044, 0.980, 21:30:57.359, 1592537457359
249, 16773.33, 43299.17, 187500.00, 187500.00, -187500.02, -187500.02, -187500.02, -187500.02, 0.000, 0.000, 0.000, 21:30:57.371, 1592537457371
250, 16774.27, 43361.71, 187500.00, 187500.00, -187500.02, -187500.02, -187500.02, -187500.02, 0.000, 0.000, 0.000, 21:30:57.372, 1592537457372
251, 16781.91, 43384.31, 187500.00, 187500.00, -187500.02, -187500.02, -187500.02, -187500.02, 0.000, 0.000, 0.000, 21:30:57.372, 1592537457372
252, 16802.37, 43423.07, 187500.00, 187500.00, -187500.02, -187500.02, -187500.02, -187500.02, 0.000, 0.000, 0.000, 21:30:57.372, 1592537457372
253, 16815.46, 43351.68, 187500.00, 187500.00, -187500.02, -187500.02, -187500.02, -187500.02, 0.000, 0.000, 0.000, 21:30:57.386, 1592537457386
254, 16778.89, 43213.21, 187500.00, 187500.00, -187500.02, -187500.02, -187500.02, -187500.02, 0.000, 0.000, 0.000, 21:30:57.386, 1592537457386
255, 16766.27, 43147.79, 187500.00, 187500.00, -187500.02, -187500.02, -187500.02, -187500.02, 0.000, 0.000, 0.000, 21:30:57.386, 1592537457386
0, 16782.65, 43174.88, 187500.00, 187500.00, -187500.02, -187500.02, -187500.02, -187500.02, 0.000, 0.000, 0.000, 21:30:57.401, 1592537457401
1, 16782.25, 43295.26, 187500.00, 187500.00, -187500.02, -187500.02, -187500.02, -187500.02, 0.012, -0.042, 0.976, 21:30:57.401, 1592537457401
2, 16778.00, 43366.81, 187500.00, 187500.00, -187500.02, -187500.02, -187500.02, -187500.02, 0.000, 0.000, 0.000, 21:30:57.401, 1592537457401
3, 16772.30, 43373.56, 187500.00, 187500.00, -187500.02, -187500.02, -187500.02, -187500.02, 0.000, 0.000, 0.000, 21:30:57.402, 1592537457402
4, 16786.07, 43390.08, 187500.00, 187500.00, -187500.02, -187500.02, -187500.02, -187500.02, 0.000, 0.000, 0.000, 21:30:57.416, 1592537457416
5, 16801.94, 43328.12, 187500.00, 187500.00, -187500.02, -187500.02, -187500.02, -187500.02, 0.000, 0.000, 0.000, 21:30:57.417, 1592537457417
6, 16788.53, 43229.97, 187500.00, 187500.00, -187500.02, -187500.02, -187500.02, -187500.02, 0.000, 0.000, 0.000, 21:30:57.417, 1592537457417
7, 16780.30, 43161.55, 187500.00, 187500.00, -187500.02, -187500.02, -187500.02, -187500.02, 0.000, 0.000, 0.000, 21:30:57.417, 1592537457417
8, 16783.95, 43166.27, 187500.00, 187500.00, -187500.02, -187500.02, -187500.02, -187500.02, 0.000, 0.000, 0.000, 21:30:57.431, 1592537457431
9, 16791.10, 43297.14, 187500.00, 187500.00, -187500.02, -187500.02, -187500.02, -187500.02, 0.000, 0.000, 0.000, 21:30:57.432, 1592537457432
10, 16802.68, 43391.15, 187500.00, 187500.00, -187500.02, -187500.02, -187500.02, -187500.02, 0.000, 0.000, 0.000, 21:30:57.432, 1592537457432
11, 16794.85, 43395.75, 187500.00, 187500.00, -187500.02, -187500.02, -187500.02, -187500.02, 0.016, -0.044, 0.974, 21:30:57.432, 1592537457432
12, 16785.73, 43383.77, 187500.00, 187500.00, -187500.02, -187500.02, -187500.02, -187500.02, 0.000, 0.000, 0.000, 21:30:57.447, 1592537457447
13, 16792.37, 43314.15, 187500.00, 187500.00, -187500.02, -187500.02, -187500.02, -187500.02, 0.000, 0.000, 0.000, 21:30:57.448, 1592537457448
14, 16792.71, 43242.98, 187500.00, 187500.00, -187500.02, -187500.02, -187500.02, -187500.02, 0.000, 0.000, 0.000, 21:30:57.448, 1592537457448
15, 16786.14, 43180.21, 187500.00, 187500.00, -187500.02, -187500.02, -187500.02, -187500.02, 0.000, 0.000, 0.000, 21:30:57.463, 1592537457463
16, 16785.51, 43170.29, 187500.00, 187500.00, -187500.02, -187500.02, -187500.02, -187500.02, 0.000, 0.000, 0.000, 21:30:57.463, 1592537457463
17, 16788.19, 43288.51, 187500.00, 187500.00, -187500.02, -187500.02, -187500.02, -187500.02, 0.000, 0.000, 0.000, 21:30:57.464, 1592537457464
18, 16786.36, 43382.48, 187500.00, 187500.00, -187500.02, -187500.02, -187500.02, -187500.02, 0.000, 0.000, 0.000, 21:30:57.464, 1592537457464
19, 16778.29, 43383.55, 187500.00, 187500.00, -187500.02, -187500.02, -187500.02, -187500.02, 0.000, 0.000, 0.000, 21:30:57.477, 1592537457477
20, 16783.59, 43373.92, 187500.00, 187500.00, -187500.02, -187500.02, -187500.02, -187500.02, 0.000, 0.000, 0.000, 21:30:57.477, 1592537457477
21, 16800.84, 43308.47, 187500.00, 187500.00, -187500.02, -187500.02, -187500.02, -187500.02, 0.018, -0.042, 0.974, 21:30:57.477, 1592537457477
22, 16801.47, 43248.63, 187500.00, 187500.00, -187500.02, -187500.02, -187500.02, -187500.02, 0.000, 0.000, 0.000, 21:30:57.477, 1592537457477
23, 16777.69, 43180.11, 187500.00, 187500.00, -187500.02, -187500.02, -187500.02, -187500.02, 0.000, 0.000, 0.000, 21:30:57.492, 1592537457492
24, 16777.31, 43159.07, 187500.00, 187500.00, -187500.02, -187500.02, -187500.02, -187500.02, 0.000, 0.000, 0.000, 21:30:57.492, 1592537457492
25, 16790.34, 43289.23, 187500.00, 187500.00, -187500.02, -187500.02, -187500.02, -187500.02, 0.000, 0.000, 0.000, 21:30:57.493, 1592537457493
26, 16791.93, 43399.96, 187500.00, 187500.00, -187500.02, -187500.02, -187500.02, -187500.02, 0.000, 0.000, 0.000, 21:30:57.493, 1592537457493
27, 16778.18, 43407.58, 187500.00, 187500.00, -187500.02, -187500.02, -187500.02, -187500.02, 0.000, 0.000, 0.000, 21:30:57.507, 1592537457507
28, 16777.69, 43382.48, 187500.00, 187500.00, -187500.02, -187500.02, -187500.02, -187500.02, 0.000, 0.000, 0.000, 21:30:57.508, 1592537457508
29, 16780.93, 43288.91, 187500.00, 187500.00, -187500.02, -187500.02, -187500.02, -187500.02, 0.000, 0.000, 0.000, 21:30:57.508, 1592537457508
30, 16778.54, 43225.68, 187500.00, 187500.00, -187500.02, -187500.02, -187500.02, -187500.02, 0.000, 0.000, 0.000, 21:30:57.521, 1592537457521
31, 16768.81, 43182.05, 187500.00, 187500.00, -187500.02, -187500.02, -187500.02, -187500.02, 0.020, -0.040, 0.974, 21:30:57.522, 1592537457522
32, 16767.99, 43155.54, 187500.00, 187500.00, -187500.02, -187500.02, -187500.02, -187500.02, 0.000, 0.000, 0.000, 21:30:57.522, 1592537457522
33, 16781.42, 43266.58, 187500.00, 187500.00, -187500.02, -187500.02, -187500.02, -187500.02, 0.000, 0.000, 0.000, 21:30:57.522, 1592537457522
34, 16799.19, 43387.42, 187500.00, 187500.00, -187500.02, -187500.02, -187500.02, -187500.02, 0.000, 0.000, 0.000, 21:30:57.536, 1592537457536
35, 16785.22, 43410.91, 187500.00, 187500.00, -187500.02, -187500.02, -187500.02, -187500.02, 0.000, 0.000, 0.000, 21:30:57.537, 1592537457537
36, 16766.78, 43372.64, 187500.00, 187500.00, -187500.02, -187500.02, -187500.02, -187500.02, 0.000, 0.000, 0.000, 21:30:57.537, 1592537457537
37, 16778.29, 43273.76, 187500.00, 187500.00, -187500.02, -187500.02, -187500.02, -187500.02, 0.000, 0.000, 0.000, 21:30:57.537, 1592537457537
38, 16786.00, 43223.11, 187500.00, 187500.00, -187500.02, -187500.02, -187500.02, -187500.02, 0.000, 0.000, 0.000, 21:30:57.552, 1592537457552
39, 16778.18, 43200.06, 187500.00, 187500.00, -187500.02, -187500.02, -187500.02, -187500.02, 0.000, 0.000, 0.000, 21:30:57.553, 1592537457553
40, 16786.79, 43181.20, 187500.00, 187500.00, -187500.02, -187500.02, -187500.02, -187500.02, 0.000, 0.000, 0.000, 21:30:57.553, 1592537457553
