%OpenBCI Raw EEG Data
%Number of channels = 8
%Sample Rate = 250.0 Hz
%First Column = SampleIndex
%Last Column = Timestamp 
%Other Columns = EEG data in microvolts followed by Accel Data (in G) interleaved with Aux Data
0, 0.00, 0.00, 0.00, 0.00, 0.00, 0.00, 0.00, 0.00, 0.020, -0.044, 0.976, 21:16:17.145, 1592536577145
1, 15467.92, 151000.44, 187500.00, 187500.00, -187500.02, -187500.02, -187500.02, -187500.02, 0.000, 0.000, 0.000, 21:16:17.163, 1592536577163
2, 15472.01, 150993.50, 187500.00, 187500.00, -187500.02, -187500.02, -187500.02, -187500.02, 0.000, 0.000, 0.000, 21:16:17.163, 1592536577163
3, 15470.02, 150995.33, 187500.00, 187500.00, -187500.02, -187500.02, -187500.02, -187500.02, 0.000, 0.000, 0.000, 21:16:17.163, 1592536577163
4, 15467.14, 150997.78, 187500.00, 187500.00, -187500.02, -187500.02, -187500.02, -187500.02, 0.000, 0.000, 0.000, 21:16:17.179, 1592536577179
5, 15473.46, 151000.02, 187500.00, 187500.00, -187500.02, -187500.02, -187500.02, -187500.02, 0.000, 0.000, 0.000, 21:16:17.179, 1592536577179
6, 15471.92, 150995.84, 187500.00, 187500.00, -187500.02, -187500.02, -187500.02, -187500.02, 0.000, 0.000, 0.000, 21:16:17.179, 1592536577179
7, 15478.34, 151002.28, 187500.00, 187500.00, -187500.02, -187500.02, -187500.02, -187500.02, 0.000, 0.000, 0.000, 21:16:17.179, 1592536577179
8, 15477.31, 151002.19, 187500.00, 187500.00, -187500.02, -187500.02, -187500.02, -187500.02, 0.016, -0.040, 0.974, 21:16:17.193, 1592536577193
9, 15479.90, 150999.44, 187500.00, 187500.00, -187500.02, -187500.02, -187500.02, -187500.02, 0.000, 0.000, 0.000, 21:16:17.194, 1592536577194
10, 15473.04, 150991.81, 187500.00, 187500.00, -187500.02, -187500.02, -187500.02, -187500.02, 0.000, 0.000, 0.000, 21:16:17.194, 1592536577194
11, 15464.93, 150985.47, 187500.00, 187500.00, -187500.02, -187500.02, -187500.02, -187500.02, 0.000, 0.000, 0.000, 21:16:17.194, 1592536577194
12, 15466.47, 150979.97, 187500.00, 187500.00, -187500.02, -187500.02, -187500.02, -187500.02, 0.000, 0.000, 0.000, 21:16:17.209, 1592536577209
13, 15463.99, 150975.88, 187500.00, 187500.00, -187500.02, -187500.02, -187500.02, -187500.02, 0.000, 0.000, 0.000, 21:16:17.209, 1592536577209
14, 15458.58, 150968.11, 187500.00, 187500.00, -187500.02, -187500.02, -187500.02, -187500.02, 0.000, 0.000, 0.000, 21:16:17.209, 1592536577209
15, 15456.66, 150966.20, 187500.00, 187500.00, -187500.02, -187500.02, -187500.02, -187500.02, 0.000, 0.000, 0.000, 21:16:17.210, 1592536577210
16, 15460.17, 150967.55, 187500.00, 187500.00, -187500.02, -187500.02, -187500.02, -187500.02, 0.000, 0.000, 0.000, 21:16:17.223, 1592536577223
17, 15460.54, 150959.08, 187500.00, 187500.00, -187500.02, -187500.02, -187500.02, -187500.02, 0.016, -0.044, 0.974, 21:16:17.223, 1592536577223
18, 15466.22, 150963.70, 187500.00, 187500.00, -187500.02, -187500.02, -187500.02, -187500.02, 0.000, 0.000, 0.000, 21:16:17.223, 1592536577223
19, 15465.80, 150964.08, 187500.00, 187500.00, -187500.02, -187500.02, -187500.02, -187500.02, 0.000, 0.000, 0.000, 21:16:17.238, 1592536577238
20, 15457.97, 150952.86, 187500.00, 187500.00, -187500.02, -187500.02, -187500.02, -187500.02, 0.000, 0.000, 0.000, 21:16:17.238, 1592536577238
21, 15464.05, 150946.56, 187500.00, 187500.00, -187500.02, -187500.02, -187500.02, -187500.02, 0.000, 0.000, 0.000, 21:16:17.239, 1592536577239
22, 15462.42, 150944.36, 187500.00, 187500.00, -187500.02, -187500.02, -187500.02, -187500.02, 0.000, 0.000, 0.000, 21:16:17.239, 1592536577239
23, 15455.69, 150946.89, 187500.00, 187500.00, -187500.02, -187500.02, -187500.02, -187500.02, 0.000, 0.000, 0.000, 21:16:17.253, 1592536577253
24, 15461.73, 150941.03, 187500.00, 187500.00, -187500.02, -187500.02, -187500.02, -187500.02, 0.000, 0.000, 0.000, 21:16:17.253, 1592536577253
25, 15466.04, 150928.11, 187500.00, 187500.00, -187500.02, -187500.02, -187500.02, -187500.02, 0.000, 0.000, 0.000, 21:16:17.254, 1592536577254
26, 15460.88, 150931.42, 187500.00, 187500.00, -187500.02, -187500.02, -187500.02, -187500.02, 0.000, 0.000, 0.000, 21:16:17.254, 1592536577254
27, 15457.33, 150933.97, 187500.00, 187500.00, -187500.02, -187500.02, -187500.02, -187500.02, 0.020, -0.038, 0.968, 21:16:17.270, 1592536577270
28, 15447.40, 150917.92, 187500.00, 187500.00, -187500.02, -187500.02, -187500.02, -187500.02, 0.000, 0.000, 0.000, 21:16:17.271, 1592536577271
29, 15450.15, 150914.23, 187500.00, 187500.00, -187500.02, -187500.02, -187500.02, -187500.02, 0.000, 0.000, 0.000, 21:16:17.271, 1592536577271
30, 15456.88, 150921.47, 187500.00, 187500.00, -187500.02, -187500.02, -187500.02, -187500.02, 0.000, 0.000, 0.000, 21:16:17.272, 1592536577272
31, 15460.14, 150926.63, 187500.00, 187500.00, -187500.02, -187500.02, -187500.02, -187500.02, 0.000, 0.000, 0.000, 21:16:17.282, 1592536577282
32, 15455.67, 150919.91, 187500.00, 187500.00, -187500.02, -187500.02, -187500.02, -187500.02, 0.000, 0.000, 0.000, 21:16:17.283, 1592536577283
33, 15457.57, 150911.80, 187500.00, 187500.00, -187500.02, -187500.02, -187500.02, -187500.02, 0.000, 0.000, 0.000, 21:16:17.283, 1592536577283
34, 15464.25, 150911.19, 187500.00, 187500.00, -187500.02, -187500.02, -187500.02, -187500.02, 0.000, 0.000, 0.000, 21:16:17.300, 1592536577300
35, 15458.64, 150908.16, 187500.00, 187500.00, -187500.02, -187500.02, -187500.02, -187500.02, 0.000, 0.000, 0.000, 21:16:17.301, 1592536577301
36, 15446.24, 150899.81, 187500.00, 187500.00, -187500.02, -187500.02, -187500.02, -187500.02, 0.000, 0.000, 0.000, 21:16:17.302, 1592536577302
37, 15446.37, 150894.09, 187500.00, 187500.00, -187500.02, -187500.02, -187500.02, -187500.02, 0.018, -0.040, 0.962, 21:16:17.303, 1592536577303
38, 15456.43, 150895.03, 187500.00, 187500.00, -187500.02, -187500.02, -187500.02, -187500.02, 0.000, 0.000, 0.000, 21:16:17.314, 1592536577314
39, 15466.27, 150906.66, 187500.00, 187500.00, -187500.02, -187500.02, -187500.02, -187500.02, 0.000, 0.000, 0.000, 21:16:17.314, 1592536577314
40, 15459.11, 150904.73, 187500.00, 187500.00, -187500.02, -187500.02, -187500.02, -187500.02, 0.000, 0.000, 0.000, 21:16:17.314, 1592536577314
41, 15452.27, 150892.31, 187500.00, 187500.00, -187500.02, -187500.02, -187500.02, -187500.02, 0.000, 0.000, 0.000, 21:16:17.315, 1592536577315
42, 15462.89, 150892.17, 187500.00, 187500.00, -187500.02, -187500.02, -187500.02, -187500.02, 0.000, 0.000, 0.000, 21:16:17.329, 1592536577329
43, 15464.93, 150908.05, 187500.00, 187500.00, -187500.02, -187500.02, -187500.02, -187500.02, 0.000, 0.000, 0.000, 21:16:17.329, 1592536577329
44, 15463.36, 150925.55, 187500.00, 187500.00, -187500.02, -187500.02, -187500.02, -187500.02, 0.000, 0.000, 0.000, 21:16:17.329, 1592536577329
45, 15464.14, 150930.58, 187500.00, 187500.00, -187500.02, -187500.02, -187500.02, -187500.02, 0.000, 0.000, 0.000, 21:16:17.329, 1592536577329
46, 15464.03, 150928.00, 187500.00, 187500.00, -187500.02, -187500.02, -187500.02, -187500.02, 0.000, 0.000, 0.000, 21:16:17.343, 1592536577343
47, 15464.48, 150927.75, 187500.00, 187500.00, -187500.02, -187500.02, -187500.02, -187500.02, 0.022, -0.048, 0.970, 21:16:17.343, 1592536577343
48, 15459.61, 150927.78, 187500.00, 187500.00, -187500.02, -187500.02, -187500.02, -187500.02, 0.000, 0.000, 0.000, 21:16:17.343, 1592536577343
49, 15464.37, 150927.56, 187500.00, 187500.00, -187500.02, -187500.02, -187500.02, -187500.02, 0.000, 0.000, 0.000, 21:16:17.360, 1592536577360
50, 15464.08, 150920.50, 187500.00, 187500.00, -187500.02, -187500.02, -187500.02, -187500.02, 0.000, 0.000, 0.000, 21:16:17.360, 1592536577360
51, 15454.96, 150908.53, 187500.00, 187500.00, -187500.02, -187500.02, -187500.02, -187500.02, 0.000, 0.000, 0.000, 21:16:17.360, 1592536577360
52, 15463.81, 150919.06, 187500.00, 187500.00, -187500.02, -187500.02, -187500.02, -187500.02, 0.000, 0.000, 0.000, 21:16:17.361, 1592536577361
53, 15467.36, 150917.92, 187500.00, 187500.00, -187500.02, -187500.02, -187500.02, -187500.02, 0.000, 0.000, 0.000, 21:16:17.374, 1592536577374
54, 15460.90, 150904.47, 187500.00, 187500.00, -187500.02, -187500.02, -187500.02, -187500.02, 0.000, 0.000, 0.000, 21:16:17.374, 1592536577374
55, 15453.62, 150892.80, 187500.00, 187500.00, -187500.02, -187500.02, -187500.02, -187500.02, 0.000, 0.000, 0.000, 21:16:17.374, 1592536577374
56, 15455.87, 150897.05, 187500.00, 187500.00, -187500.02, -187500.02, -187500.02, -187500.02, 0.000, 0.000, 0.000, 21:16:17.374, 1592536577374
57, 15455.87, 150904.31, 187500.00, 187500.00, -187500.02, -187500.02, -187500.02, -187500.02, 0.024, -0.044, 0.972, 21:16:17.390, 1592536577390
58, 15462.06, 150905.25, 187500.00, 187500.00, -187500.02, -187500.02, -187500.02, -187500.02, 0.000, 0.000, 0.000, 21:16:17.390, 1592536577390
59, 15461.91, 150898.86, 187500.00, 187500.00, -187500.02, -187500.02, -187500.02, -187500.02, 0.000, 0.000, 0.000, 21:16:17.390, 1592536577390
60, 15454.91, 150891.91, 187500.00, 187500.00, -187500.02, -187500.02, -187500.02, -187500.02, 0.000, 0.000, 0.000, 21:16:17.391, 1592536577391
61, 15453.48, 150888.58, 187500.00, 187500.00, -187500.02, -187500.02, -187500.02, -187500.02, 0.000, 0.000, 0.000, 21:16:17.405, 1592536577405
62, 15450.64, 150885.31, 187500.00, 187500.00, -187500.02, -187500.02, -187500.02, -187500.02, 0.000, 0.000, 0.000, 21:16:17.405, 1592536577405
63, 15458.02, 150887.22, 187500.00, 187500.00, -187500.02, -187500.02, -187500.02, -187500.02, 0.000, 0.000, 0.000, 21:16:17.405, 1592536577405
64, 15464.46, 150895.61, 187500.00, 187500.00, -187500.02, -187500.02, -187500.02, -187500.02, 0.000, 0.000, 0.000, 21:16:17.418, 1592536577418
65, 15462.24, 150893.84, 187500.00, 187500.00, -187500.02, -187500.02, -187500.02, -187500.02, 0.000, 0.000, 0.000, 21:16:17.419, 1592536577419
66, 15462.80, 150886.63, 187500.00, 187500.00, -187500.02, -187500.02, -187500.02, -187500.02, 0.000, 0.000, 0.000, 21:16:17.421, 1592536577421
67, 15462.80, 150878.67, 187500.00, 187500.00, -187500.02, -187500.02, -187500.02, -187500.02, 0.022, -0.040, 0.970, 21:16:17.421, 1592536577421
68, 15457.91, 150879.52, 187500.00, 187500.00, -187500.02, -187500.02, -187500.02, -187500.02, 0.000, 0.000, 0.000, 21:16:17.435, 1592536577435
69, 15460.23, 150893.30, 187500.00, 187500.00, -187500.02, -187500.02, -187500.02, -187500.02, 0.000, 0.000, 0.000, 21:16:17.435, 1592536577435
70, 15456.61, 150878.36, 187500.00, 187500.00, -187500.02, -187500.02, -187500.02, -187500.02, 0.000, 0.000, 0.000, 21:16:17.435, 1592536577435
71, 15455.54, 150868.13, 187500.00, 187500.00, -187500.02, -187500.02, -187500.02, -187500.02, 0.000, 0.000, 0.000, 21:16:17.435, 1592536577435
72, 15452.57, 150860.84, 187500.00, 187500.00, -187500.02, -187500.02, -187500.02, -187500.02, 0.000, 0.000, 0.000, 21:16:17.448, 1592536577448
73, 15446.75, 150860.55, 187500.00, 187500.00, -187500.02, -187500.02, -187500.02, -187500.02, 0.000, 0.000, 0.000, 21:16:17.448, 1592536577448
74, 15446.11, 150864.56, 187500.00, 187500.00, -187500.02, -187500.02, -187500.02, -187500.02, 0.000, 0.000, 0.000, 21:16:17.449, 1592536577449
75, 15444.23, 150861.11, 187500.00, 187500.00, -187500.02, -187500.02, -187500.02, -187500.02, 0.000, 0.000, 0.000, 21:16:17.449, 1592536577449
76, 15442.80, 150854.06, 187500.00, 187500.00, -187500.02, -187500.02, -187500.02, -187500.02, 0.000, 0.000, 0.000, 21:16:17.464, 1592536577464
77, 15442.60, 150857.84, 187500.00, 187500.00, -187500.02, -187500.02, -187500.02, -187500.02, 0.028, -0.038, 0.964, 21:16:17.464, 1592536577464
78, 15442.37, 150855.34, 187500.00, 187500.00, -187500.02, -187500.02, -187500.02, -187500.02, 0.000, 0.000, 0.000, 21:16:17.464, 1592536577464
79, 15442.01, 150842.95, 187500.00, 187500.00, -187500.02, -187500.02, -187500.02, -187500.02, 0.000, 0.000, 0.000, 21:16:17.478, 1592536577478
80, 15447.47, 150845.86, 187500.00, 187500.00, -187500.02, -187500.02, -187500.02, -187500.02, 0.000, 0.000, 0.000, 21:16:17.478, 1592536577478
81, 15440.88, 150848.78, 187500.00, 187500.00, -187500.02, -187500.02, -187500.02, -187500.02, 0.000, 0.000, 0.000, 21:16:17.478, 1592536577478
82, 15441.88, 150853.06, 187500.00, 187500.00, -187500.02, -187500.02, -187500.02, -187500.02, 0.000, 0.000, 0.000, 21:16:17.478, 1592536577478
83, 15439.29, 150837.19, 187500.00, 187500.00, -187500.02, -187500.02, -187500.02, -187500.02, 0.000, 0.000, 0.000, 21:16:17.494, 1592536577494
84, 15445.70, 150840.94, 187500.00, 187500.00, -187500.02, -187500.02, -187500.02, -187500.02, 0.000, 0.000, 0.000, 21:16:17.495, 1592536577495
85, 15441.43, 150842.89, 187500.00, 187500.00, -187500.02, -187500.02, -187500.02, -187500.02, 0.000, 0.000, 0.000, 21:16:17.495, 1592536577495
86, 15433.63, 150837.48, 187500.00, 187500.00, -187500.02, -187500.02, -187500.02, -187500.02, 0.000, 0.000, 0.000, 21:16:17.495, 1592536577495
87, 15442.01, 150835.33, 187500.00, 187500.00, -187500.02, -187500.02, -187500.02, -187500.02, 0.020, -0.030, 0.970, 21:16:17.509, 1592536577509
88, 15439.67, 150833.25, 187500.00, 187500.00, -187500.02, -187500.02, -187500.02, -187500.02, 0.000, 0.000, 0.000, 21:16:17.509, 1592536577509
89, 15435.49, 150839.13, 187500.00, 187500.00, -187500.02, -187500.02, -187500.02, -187500.02, 0.000, 0.000, 0.000, 21:16:17.509, 1592536577509
90, 15446.37, 150843.06, 187500.00, 187500.00, -187500.02, -187500.02, -187500.02, -187500.02, 0.000, 0.000, 0.000, 21:16:17.509, 1592536577509
91, 15445.39, 150828.34, 187500.00, 187500.00, -187500.02, -187500.02, -187500.02, -187500.02, 0.000, 0.000, 0.000, 21:16:17.524, 1592536577524
92, 15445.41, 150829.70, 187500.00, 187500.00, -187500.02, -187500.02, -187500.02, -187500.02, 0.000, 0.000, 0.000, 21:16:17.524, 1592536577524
93, 15455.67, 150845.28, 187500.00, 187500.00, -187500.02, -187500.02, -187500.02, -187500.02, 0.000, 0.000, 0.000, 21:16:17.525, 1592536577525
94, 15448.43, 150841.84, 187500.00, 187500.00, -187500.02, -187500.02, -187500.02, -187500.02, 0.000, 0.000, 0.000, 21:16:17.540, 1592536577540
95, 15432.81, 150826.84, 187500.00, 187500.00, -187500.02, -187500.02, -187500.02, -187500.02, 0.000, 0.000, 0.000, 21:16:17.541, 1592536577541
96, 15422.30, 150809.41, 187500.00, 187500.00, -187500.02, -187500.02, -187500.02, -187500.02, 0.022, -0.038, 0.970, 21:16:17.541, 1592536577541
97, 15421.50, 150805.16, 187500.00, 187500.00, -187500.02, -187500.02, -187500.02, -187500.02, 0.000, 0.000, 0.000, 21:16:17.541, 1592536577541
98, 15418.63, 150812.89, 187500.00, 187500.00, -187500.02, -187500.02, -187500.02, -187500.02, 0.000, 0.000, 0.000, 21:16:17.554, 1592536577554
99, 15412.82, 150808.05, 187500.00, 187500.00, -187500.02, -187500.02, -187500.02, -187500.02, 0.000, 0.000, 0.000, 21:16:17.555, 1592536577555
100, 15425.79, 150813.89, 187500.00, 187500.00, -187500.02, -187500.02, -187500.02, -187500.02, 0.000, 0.000, 0.000, 21:16:17.555, 1592536577555
101, 15427.87, 150821.66, 187500.00, 187500.00, -187500.02, -187500.02, -187500.02, -187500.02, 0.000, 0.000, 0.000, 21:16:17.555, 1592536577555
102, 15422.73, 150825.97, 187500.00, 187500.00, -187500.02, -187500.02, -187500.02, -187500.02, 0.000, 0.000, 0.000, 21:16:17.570, 1592536577570
103, 15419.44, 150823.02, 187500.00, 187500.00, -187500.02, -187500.02, -187500.02, -187500.02, 0.000, 0.000, 0.000, 21:16:17.571, 1592536577571
104, 15421.76, 150815.00, 187500.00, 187500.00, -187500.02, -187500.02, -187500.02, -187500.02, 0.000, 0.000, 0.000, 21:16:17.571, 1592536577571
105, 15424.98, 150816.06, 187500.00, 187500.00, -187500.02, -187500.02, -187500.02, -187500.02, 0.000, 0.000, 0.000, 21:16:17.571, 1592536577571
106, 15431.67, 150828.36, 187500.00, 187500.00, -187500.02, -187500.02, -187500.02, -187500.02, 0.016, -0.044, 0.970, 21:16:17.583, 1592536577583
107, 15430.28, 150827.72, 187500.00, 187500.00, -187500.02, -187500.02, -187500.02, -187500.02, 0.000, 0.000, 0.000, 21:16:17.583, 1592536577583
108, 15421.27, 150818.03, 187500.00, 187500.00, -187500.02, -187500.02, -187500.02, -187500.02, 0.000, 0.000, 0.000, 21:16:17.584, 1592536577584
109, 15424.45, 150820.17, 187500.00, 187500.00, -187500.02, -187500.02, -187500.02, -187500.02, 0.000, 0.000, 0.000, 21:16:17.600, 1592536577600
110, 15423.91, 150830.95, 187500.00, 187500.00, -187500.02, -187500.02, -187500.02, -187500.02, 0.000, 0.000, 0.000, 21:16:17.600, 1592536577600
111, 15430.93, 150847.42, 187500.00, 187500.00, -187500.02, -187500.02, -187500.02, -187500.02, 0.000, 0.000, 0.000, 21:16:17.601, 1592536577601
112, 15431.06, 150851.11, 187500.00, 187500.00, -187500.02, -187500.02, -187500.02, -187500.02, 0.000, 0.000, 0.000, 21:16:17.601, 1592536577601
113, 15434.82, 150866.63, 187500.00, 187500.00, -187500.02, -187500.02, -187500.02, -187500.02, 0.000, 0.000, 0.000, 21:16:17.613, 1592536577613
114, 15432.07, 150881.38, 187500.00, 187500.00, -187500.02, -187500.02, -187500.02, -187500.02, 0.000, 0.000, 0.000, 21:16:17.613, 1592536577613
115, 15431.46, 150889.42, 187500.00, 187500.00, -187500.02, -187500.02, -187500.02, -187500.02, 0.000, 0.000, 0.000, 21:16:17.613, 1592536577613
116, 15427.20, 150877.98, 187500.00, 187500.00, -187500.02, -187500.02, -187500.02, -187500.02, 0.016, -0.042, 0.976, 21:16:17.614, 1592536577614
117, 15427.60, 150875.88, 187500.00, 187500.00, -187500.02, -187500.02, -187500.02, -187500.02, 0.000, 0.000, 0.000, 21:16:17.629, 1592536577629
118, 15431.42, 150884.95, 187500.00, 187500.00, -187500.02, -187500.02, -187500.02, -187500.02, 0.000, 0.000, 0.000, 21:16:17.629, 1592536577629
119, 15429.05, 150892.73, 187500.00, 187500.00, -187500.02, -187500.02, -187500.02, -187500.02, 0.000, 0.000, 0.000, 21:16:17.629, 1592536577629
120, 15424.33, 150880.50, 187500.00, 187500.00, -187500.02, -187500.02, -187500.02, -187500.02, 0.000, 0.000, 0.000, 21:16:17.629, 1592536577629
121, 15429.74, 150878.94, 187500.00, 187500.00, -187500.02, -187500.02, -187500.02, -187500.02, 0.000, 0.000, 0.000, 21:16:17.643, 1592536577643
122, 15429.79, 150886.94, 187500.00, 187500.00, -187500.02, -187500.02, -187500.02, -187500.02, 0.000, 0.000, 0.000, 21:16:17.643, 1592536577643
123, 15430.71, 150885.77, 187500.00, 187500.00, -187500.02, -187500.02, -187500.02, -187500.02, 0.000, 0.000, 0.000, 21:16:17.644, 1592536577644
124, 15437.43, 150879.20, 187500.00, 187500.00, -187500.02, -187500.02, -187500.02, -187500.02, 0.000, 0.000, 0.000, 21:16:17.644, 1592536577644
125, 15434.35, 150858.98, 187500.00, 187500.00, -187500.02, -187500.02, -187500.02, -187500.02, 0.000, 0.000, 0.000, 21:16:17.661, 1592536577661
126, 15439.89, 150854.44, 187500.00, 187500.00, -187500.02, -187500.02, -187500.02, -187500.02, 0.018, -0.040, 0.970, 21:16:17.661, 1592536577661
127, 15438.10, 150858.83, 187500.00, 187500.00, -187500.02, -187500.02, -187500.02, -187500.02, 0.000, 0.000, 0.000, 21:16:17.661, 1592536577661
128, 15428.98, 150847.53, 187500.00, 187500.00, -187500.02, -187500.02, -187500.02, -187500.02, 0.000, 0.000, 0.000, 21:16:17.674, 1592536577674
129, 15430.66, 150834.47, 187500.00, 187500.00, -187500.02, -187500.02, -187500.02, -187500.02, 0.000, 0.000, 0.000, 21:16:17.674, 1592536577674
130, 15434.55, 150833.19, 187500.00, 187500.00, -187500.02, -187500.02, -187500.02, -187500.02, 0.000, 0.000, 0.000, 21:16:17.675, 1592536577675
131, 15433.70, 150836.23, 187500.00, 187500.00, -187500.02, -187500.02, -187500.02, -187500.02, 0.000, 0.000, 0.000, 21:16:17.676, 1592536577676
132, 15436.70, 150834.91, 187500.00, 187500.00, -187500.02, -187500.02, -187500.02, -187500.02, 0.000, 0.000, 0.000, 21:16:17.689, 1592536577689
133, 15430.73, 150821.00, 187500.00, 187500.00, -187500.02, -187500.02, -187500.02, -187500.02, 0.000, 0.000, 0.000, 21:16:17.689, 1592536577689
134, 15430.15, 150819.11, 187500.00, 187500.00, -187500.02, -187500.02, -187500.02, -187500.02, 0.000, 0.000, 0.000, 21:16:17.690, 1592536577690
135, 15435.87, 150829.19, 187500.00, 187500.00, -187500.02, -187500.02, -187500.02, -187500.02, 0.000, 0.000, 0.000, 21:16:17.690, 1592536577690
136, 15427.58, 150833.80, 187500.00, 187500.00, -187500.02, -187500.02, -187500.02, -187500.02, 0.022, -0.040, 0.972, 21:16:17.705, 1592536577705
137, 15430.48, 150834.31, 187500.00, 187500.00, -187500.02, -187500.02, -187500.02, -187500.02, 0.000, 0.000, 0.000, 21:16:17.705, 1592536577705
138, 15445.73, 150828.47, 187500.00, 187500.00, -187500.02, -187500.02, -187500.02, -187500.02, 0.000, 0.000, 0.000, 21:16:17.706, 1592536577706
139, 15445.59, 150815.80, 187500.00, 187500.00, -187500.02, -187500.02, -187500.02, -187500.02, 0.000, 0.000, 0.000, 21:16:17.707, 1592536577707
140, 15440.16, 150807.55, 187500.00, 187500.00, -187500.02, -187500.02, -187500.02, -187500.02, 0.000, 0.000, 0.000, 21:16:17.718, 1592536577718
141, 15442.24, 150802.44, 187500.00, 187500.00, -187500.02, -187500.02, -187500.02, -187500.02, 0.000, 0.000, 0.000, 21:16:17.718, 1592536577718
142, 15453.88, 150798.34, 187500.00, 187500.00, -187500.02, -187500.02, -187500.02, -187500.02, 0.000, 0.000, 0.000, 21:16:17.718, 1592536577718
143, 15457.55, 150798.36, 187500.00, 187500.00, -187500.02, -187500.02, -187500.02, -187500.02, 0.000, 0.000, 0.000, 21:16:17.734, 1592536577734
144, 15448.12, 150794.14, 187500.00, 187500.00, -187500.02, -187500.02, -187500.02, -187500.02, 0.000, 0.000, 0.000, 21:16:17.734, 1592536577734
145, 15434.93, 150771.23, 187500.00, 187500.00, -187500.02, -187500.02, -187500.02, -187500.02, 0.000, 0.000, 0.000, 21:16:17.734, 1592536577734
146, 15432.25, 150754.67, 187500.00, 187500.00, -187500.02, -187500.02, -187500.02, -187500.02, 0.020, -0.040, 0.978, 21:16:17.734, 1592536577734
147, 15445.99, 150763.73, 187500.00, 187500.00, -187500.02, -187500.02, -187500.02, -187500.02, 0.000, 0.000, 0.000, 21:16:17.748, 1592536577748
148, 15458.49, 150785.17, 187500.00, 187500.00, -187500.02, -187500.02, -187500.02, -187500.02, 0.000, 0.000, 0.000, 21:16:17.748, 1592536577748
149, 15456.86, 150783.83, 187500.00, 187500.00, -187500.02, -187500.02, -187500.02, -187500.02, 0.000, 0.000, 0.000, 21:16:17.748, 1592536577748
150, 15456.77, 150773.11, 187500.00, 187500.00, -187500.02, -187500.02, -187500.02, -187500.02, 0.000, 0.000, 0.000, 21:16:17.748, 1592536577748
151, 15453.86, 150769.64, 187500.00, 187500.00, -187500.02, -187500.02, -187500.02, -187500.02, 0.000, 0.000, 0.000, 21:16:17.764, 1592536577764
152, 15467.72, 150784.33, 187500.00, 187500.00, -187500.02, -187500.02, -187500.02, -187500.02, 0.000, 0.000, 0.000, 21:16:17.764, 1592536577764
153, 15468.48, 150781.16, 187500.00, 187500.00, -187500.02, -187500.02, -187500.02, -187500.02, 0.000, 0.000, 0.000, 21:16:17.765, 1592536577765
154, 15472.08, 150765.48, 187500.00, 187500.00, -187500.02, -187500.02, -187500.02, -187500.02, 0.000, 0.000, 0.000, 21:16:17.765, 1592536577765
155, 15474.51, 150762.78, 187500.00, 187500.00, -187500.02, -187500.02, -187500.02, -187500.02, 0.000, 0.000, 0.000, 21:16:17.779, 1592536577779
156, 15482.00, 150782.09, 187500.00, 187500.00, -187500.02, -187500.02, -187500.02, -187500.02, 0.024, -0.040, 0.980, 21:16:17.779, 1592536577779
157, 15475.48, 150786.22, 187500.00, 187500.00, -187500.02, -187500.02, -187500.02, -187500.02, 0.000, 0.000, 0.000, 21:16:17.780, 1592536577780
158, 15475.70, 150773.83, 187500.00, 187500.00, -187500.02, -187500.02, -187500.02, -187500.02, 0.000, 0.000, 0.000, 21:16:17.796, 1592536577796
159, 15484.01, 150773.84, 187500.00, 187500.00, -187500.02, -187500.02, -187500.02, -187500.02, 0.000, 0.000, 0.000, 21:16:17.797, 1592536577797
160, 15488.22, 150790.08, 187500.00, 187500.00, -187500.02, -187500.02, -187500.02, -187500.02, 0.000, 0.000, 0.000, 21:16:17.797, 1592536577797
161, 15479.75, 150791.91, 187500.00, 187500.00, -187500.02, -187500.02, -187500.02, -187500.02, 0.000, 0.000, 0.000, 21:16:17.797, 1592536577797
162, 15477.58, 150775.13, 187500.00, 187500.00, -187500.02, -187500.02, -187500.02, -187500.02, 0.000, 0.000, 0.000, 21:16:17.810, 1592536577810
163, 15478.27, 150765.13, 187500.00, 187500.00, -187500.02, -187500.02, -187500.02, -187500.02, 0.000, 0.000, 0.000, 21:16:17.810, 1592536577810
164, 15478.69, 150778.36, 187500.00, 187500.00, -187500.02, -187500.02, -187500.02, -187500.02, 0.000, 0.000, 0.000, 21:16:17.810, 1592536577810
165, 15482.72, 150785.25, 187500.00, 187500.00, -187500.02, -187500.02, -187500.02, -187500.02, 0.000, 0.000, 0.000, 21:16:17.810, 1592536577810
166, 15480.01, 150773.06, 187500.00, 187500.00, -187500.02, -187500.02, -187500.02, -187500.02, 0.024, -0.040, 0.976, 21:16:17.825, 1592536577825
167, 15483.95, 150769.78, 187500.00, 187500.00, -187500.02, -187500.02, -187500.02, -187500.02, 0.000, 0.000, 0.000, 21:16:17.825, 1592536577825
168, 15493.69, 150788.06, 187500.00, 187500.00, -187500.02, -187500.02, -187500.02, -187500.02, 0.000, 0.000, 0.000, 21:16:17.825, 1592536577825
169, 15493.20, 150803.13, 187500.00, 187500.00, -187500.02, -187500.02, -187500.02, -187500.02, 0.000, 0.000, 0.000, 21:16:17.825, 1592536577825
170, 15481.49, 150787.13, 187500.00, 187500.00, -187500.02, -187500.02, -187500.02, -187500.02, 0.000, 0.000, 0.000, 21:16:17.838, 1592536577838
171, 15475.54, 150767.08, 187500.00, 187500.00, -187500.02, -187500.02, -187500.02, -187500.02, 0.000, 0.000, 0.000, 21:16:17.838, 1592536577838
172, 15480.95, 150769.27, 187500.00, 187500.00, -187500.02, -187500.02, -187500.02, -187500.02, 0.000, 0.000, 0.000, 21:16:17.838, 1592536577838
173, 15480.71, 150775.44, 187500.00, 187500.00, -187500.02, -187500.02, -187500.02, -187500.02, 0.000, 0.000, 0.000, 21:16:17.858, 1592536577858
174, 15476.17, 150775.08, 187500.00, 187500.00, -187500.02, -187500.02, -187500.02, -187500.02, 0.000, 0.000, 0.000, 21:16:17.858, 1592536577858
175, 15473.29, 150770.38, 187500.00, 187500.00, -187500.02, -187500.02, -187500.02, -187500.02, 0.000, 0.000, 0.000, 21:16:17.858, 1592536577858
0, 0.00, 0.00, 0.00, 0.00, 0.00, 0.00, 0.00, 0.00, 0.000, 0.000, 0.000, 21:16:17.883, 1592536577883
1, 15467.67, 150739.11, 187500.00, 187500.00, -187500.02, -187500.02, -187500.02, -187500.02, 0.000, 0.000, 0.000, 21:16:17.883, 1592536577883
2, 15472.59, 150862.45, 187500.00, 187500.00, -187500.02, -187500.02, -187500.02, -187500.02, 0.000, 0.000, 0.000, 21:16:17.883, 1592536577883
3, 15484.86, 150934.23, 187500.00, 187500.00, -187500.02, -187500.02, -187500.02, -187500.02, 0.000, 0.000, 0.000, 21:16:17.883, 1592536577883
4, 15480.62, 150940.78, 187500.00, 187500.00, -187500.02, -187500.02, -187500.02, -187500.02, 0.000, 0.000, 0.000, 21:16:17.899, 1592536577899
5, 15472.79, 150797.89, 187500.00, 187500.00, -187500.02, -187500.02, -187500.02, -187500.02, 0.020, -0.040, 0.972, 21:16:17.899, 1592536577899
6, 15470.29, 150672.13, 187500.00, 187500.00, -187500.02, -187500.02, -187500.02, -187500.02, 0.000, 0.000, 0.000, 21:16:17.899, 1592536577899
7, 15469.93, 150622.55, 187500.00, 187500.00, -187500.02, -187500.02, -187500.02, -187500.02, 0.000, 0.000, 0.000, 21:16:17.899, 1592536577899
8, 15468.95, 150612.44, 187500.00, 187500.00, -187500.02, -187500.02, -187500.02, -187500.02, 0.000, 0.000, 0.000, 21:16:17.914, 1592536577914
9, 15461.21, 150728.48, 187500.00, 187500.00, -187500.02, -187500.02, -187500.02, -187500.02, 0.000, 0.000, 0.000, 21:16:17.914, 1592536577914
10, 15457.79, 150852.19, 187500.00, 187500.00, -187500.02, -187500.02, -187500.02, -187500.02, 0.000, 0.000, 0.000, 21:16:17.915, 1592536577915
11, 15459.27, 150922.91, 187500.00, 187500.00, -187500.02, -187500.02, -187500.02, -187500.02, 0.000, 0.000, 0.000, 21:16:17.929, 1592536577929
12, 15458.49, 150937.17, 187500.00, 187500.00, -187500.02, -187500.02, -187500.02, -187500.02, 0.000, 0.000, 0.000, 21:16:17.930, 1592536577930
13, 15457.68, 150801.63, 187500.00, 187500.00, -187500.02, -187500.02, -187500.02, -187500.02, 0.000, 0.000, 0.000, 21:16:17.930, 1592536577930
14, 15460.10, 150679.00, 187500.00, 187500.00, -187500.02, -187500.02, -187500.02, -187500.02, 0.000, 0.000, 0.000, 21:16:17.930, 1592536577930
15, 15458.44, 150632.17, 187500.00, 187500.00, -187500.02, -187500.02, -187500.02, -187500.02, 0.016, -0.042, 0.966, 21:16:17.944, 1592536577944
16, 15459.47, 150627.50, 187500.00, 187500.00, -187500.02, -187500.02, -187500.02, -187500.02, 0.000, 0.000, 0.000, 21:16:17.944, 1592536577944
17, 15453.84, 150748.78, 187500.00, 187500.00, -187500.02, -187500.02, -187500.02, -187500.02, 0.000, 0.000, 0.000, 21:16:17.944, 1592536577944
18, 15453.57, 150864.84, 187500.00, 187500.00, -187500.02, -187500.02, -187500.02, -187500.02, 0.000, 0.000, 0.000, 21:16:17.944, 1592536577944
19, 15459.87, 150928.31, 187500.00, 187500.00, -187500.02, -187500.02, -187500.02, -187500.02, 0.000, 0.000, 0.000, 21:16:17.960, 1592536577960
20, 15462.67, 150949.58, 187500.00, 187500.00, -187500.02, -187500.02, -187500.02, -187500.02, 0.000, 0.000, 0.000, 21:16:17.961, 1592536577961
21, 15462.62, 150811.55, 187500.00, 187500.00, -187500.02, -187500.02, -187500.02, -187500.02, 0.000, 0.000, 0.000, 21:16:17.961, 1592536577961
22, 15456.25, 150676.09, 187500.00, 187500.00, -187500.02, -187500.02, -187500.02, -187500.02, 0.000, 0.000, 0.000, 21:16:17.961, 1592536577961
23, 15458.42, 150624.67, 187500.00, 187500.00, -187500.02, -187500.02, -187500.02, -187500.02, 0.000, 0.000, 0.000, 21:16:17.974, 1592536577974
24, 15457.97, 150617.63, 187500.00, 187500.00, -187500.02, -187500.02, -187500.02, -187500.02, 0.000, 0.000, 0.000, 21:16:17.975, 1592536577975
25, 15448.74, 150738.13, 187500.00, 187500.00, -187500.02, -187500.02, -187500.02, -187500.02, 0.018, -0.042, 0.968, 21:16:17.976, 1592536577976
26, 15446.51, 150860.34, 187500.00, 187500.00, -187500.02, -187500.02, -187500.02, -187500.02, 0.000, 0.000, 0.000, 21:16:17.988, 1592536577988
27, 15446.89, 150925.08, 187500.00, 187500.00, -187500.02, -187500.02, -187500.02, -187500.02, 0.000, 0.000, 0.000, 21:16:17.989, 1592536577989
28, 15457.55, 150957.22, 187500.00, 187500.00, -187500.02, -187500.02, -187500.02, -187500.02, 0.000, 0.000, 0.000, 21:16:17.990, 1592536577990
29, 15462.71, 150825.50, 187500.00, 187500.00, -187500.02, -187500.02, -187500.02, -187500.02, 0.000, 0.000, 0.000, 21:16:17.991, 1592536577991
30, 15447.76, 150679.42, 187500.00, 187500.00, -187500.02, -187500.02, -187500.02, -187500.02, 0.000, 0.000, 0.000, 21:16:18.003, 1592536578003
31, 15440.90, 150619.03, 187500.00, 187500.00, -187500.02, -187500.02, -187500.02, -187500.02, 0.000, 0.000, 0.000, 21:16:18.004, 1592536578004
32, 15448.47, 150624.47, 187500.00, 187500.00, -187500.02, -187500.02, -187500.02, -187500.02, 0.000, 0.000, 0.000, 21:16:18.004, 1592536578004
33, 15455.56, 150759.61, 187500.00, 187500.00, -187500.02, -187500.02, -187500.02, -187500.02, 0.000, 0.000, 0.000, 21:16:18.005, 1592536578005
34, 15454.17, 150879.88, 187500.00, 187500.00, -187500.02, -187500.02, -187500.02, -187500.02, 0.000, 0.000, 0.000, 21:16:18.019, 1592536578019
35, 15457.26, 150943.16, 187500.00, 187500.00, -187500.02, -187500.02, -187500.02, -187500.02, 0.014, -0.042, 0.972, 21:16:18.020, 1592536578020
36, 15464.46, 150970.73, 187500.00, 187500.00, -187500.02, -187500.02, -187500.02, -187500.02, 0.000, 0.000, 0.000, 21:16:18.020, 1592536578020
37, 15473.02, 150847.22, 187500.00, 187500.00, -187500.02, -187500.02, -187500.02, -187500.02, 0.000, 0.000, 0.000, 21:16:18.020, 1592536578020
38, 15467.72, 150700.78, 187500.00, 187500.00, -187500.02, -187500.02, -187500.02, -187500.02, 0.000, 0.000, 0.000, 21:16:18.032, 1592536578032
39, 15465.37, 150632.72, 187500.00, 187500.00, -187500.02, -187500.02, -187500.02, -187500.02, 0.000, 0.000, 0.000, 21:16:18.032, 1592536578032
40, 15473.02, 150631.06, 187500.00, 187500.00, -187500.02, -187500.02, -187500.02, -187500.02, 0.000, 0.000, 0.000, 21:16:18.032, 1592536578032
41, 15473.40, 150765.34, 187500.00, 187500.00, -187500.02, -187500.02, -187500.02, -187500.02, 0.000, 0.000, 0.000, 21:16:18.048, 1592536578048
42, 15465.93, 150875.81, 187500.00, 187500.00, -187500.02, -187500.02, -187500.02, -187500.02, 0.000, 0.000, 0.000, 21:16:18.048, 1592536578048
43, 15455.92, 150918.86, 187500.00, 187500.00, -187500.02, -187500.02, -187500.02, -187500.02, 0.000, 0.000, 0.000, 21:16:18.049, 1592536578049
44, 15451.29, 150928.31, 187500.00, 187500.00, -187500.02, -187500.02, -187500.02, -187500.02, 0.020, -0.044, 0.972, 21:16:18.049, 1592536578049
45, 15462.33, 150799.56, 187500.00, 187500.00, -187500.02, -187500.02, -187500.02, -187500.02, 0.000, 0.000, 0.000, 21:16:18.064, 1592536578064
46, 15459.23, 150659.92, 187500.00, 187500.00, -187500.02, -187500.02, -187500.02, -187500.02, 0.000, 0.000, 0.000, 21:16:18.064, 1592536578064
47, 15464.41, 150602.23, 187500.00, 187500.00, -187500.02, -187500.02, -187500.02, -187500.02, 0.000, 0.000, 0.000, 21:16:18.064, 1592536578064
48, 15467.14, 150601.20, 187500.00, 187500.00, -187500.02, -187500.02, -187500.02, -187500.02, 0.000, 0.000, 0.000, 21:16:18.064, 1592536578064
49, 15460.21, 150730.69, 187500.00, 187500.00, -187500.02, -187500.02, -187500.02, -187500.02, 0.000, 0.000, 0.000, 21:16:18.079, 1592536578079
50, 15462.15, 150854.27, 187500.00, 187500.00, -187500.02, -187500.02, -187500.02, -187500.02, 0.000, 0.000, 0.000, 21:16:18.079, 1592536578079
51, 15468.50, 150911.44, 187500.00, 187500.00, -187500.02, -187500.02, -187500.02, -187500.02, 0.000, 0.000, 0.000, 21:16:18.080, 1592536578080
52, 15478.27, 150928.52, 187500.00, 187500.00, -187500.02, -187500.02, -187500.02, -187500.02, 0.000, 0.000, 0.000, 21:16:18.080, 1592536578080
53, 15488.17, 150810.67, 187500.00, 187500.00, -187500.02, -187500.02, -187500.02, -187500.02, 0.000, 0.000, 0.000, 21:16:18.093, 1592536578093
54, 15487.88, 150679.78, 187500.00, 187500.00, -187500.02, -187500.02, -187500.02, -187500.02, 0.018, -0.048, 0.970, 21:16:18.093, 1592536578093
55, 15494.36, 150623.34, 187500.00, 187500.00, -187500.02, -187500.02, -187500.02, -187500.02, 0.000, 0.000, 0.000, 21:16:18.093, 1592536578093
56, 15473.53, 150600.78, 187500.00, 187500.00, -187500.02, -187500.02, -187500.02, -187500.02, 0.000, 0.000, 0.000, 21:16:18.094, 1592536578094
57, 15479.25, 150746.70, 187500.00, 187500.00, -187500.02, -187500.02, -187500.02, -187500.02, 0.000, 0.000, 0.000, 21:16:18.108, 1592536578108
58, 15473.91, 150858.33, 187500.00, 187500.00, -187500.02, -187500.02, -187500.02, -187500.02, 0.000, 0.000, 0.000, 21:16:18.109, 1592536578109
59, 15469.17, 150890.00, 187500.00, 187500.00, -187500.02, -187500.02, -187500.02, -187500.02, 0.000, 0.000, 0.000, 21:16:18.109, 1592536578109
60, 15469.11, 150900.00, 187500.00, 187500.00, -187500.02, -187500.02, -187500.02, -187500.02, 0.000, 0.000, 0.000, 21:16:18.124, 1592536578124
61, 15470.07, 150780.84, 187500.00, 187500.00, -187500.02, -187500.02, -187500.02, -187500.02, 0.000, 0.000, 0.000, 21:16:18.124, 1592536578124
62, 15475.57, 150665.50, 187500.00, 187500.00, -187500.02, -187500.02, -187500.02, -187500.02, 0.000, 0.000, 0.000, 21:16:18.124, 1592536578124
63, 15472.79, 150596.58, 187500.00, 187500.00, -187500.02, -187500.02, -187500.02, -187500.02, 0.000, 0.000, 0.000, 21:16:18.124, 1592536578124
64, 15470.04, 150576.97, 187500.00, 187500.00, -187500.02, -187500.02, -187500.02, -187500.02, 0.022, -0.046, 0.976, 21:16:18.138, 1592536578138
65, 15466.47, 150713.98, 187500.00, 187500.00, -187500.02, -187500.02, -187500.02, -187500.02, 0.000, 0.000, 0.000, 21:16:18.138, 1592536578138
66, 15471.90, 150849.64, 187500.00, 187500.00, -187500.02, -187500.02, -187500.02, -187500.02, 0.000, 0.000, 0.000, 21:16:18.138, 1592536578138
67, 15465.22, 150888.06, 187500.00, 187500.00, -187500.02, -187500.02, -187500.02, -187500.02, 0.000, 0.000, 0.000, 21:16:18.139, 1592536578139
68, 15456.81, 150893.63, 187500.00, 187500.00, -187500.02, -187500.02, -187500.02, -187500.02, 0.000, 0.000, 0.000, 21:16:18.154, 1592536578154
69, 15458.00, 150770.69, 187500.00, 187500.00, -187500.02, -187500.02, -187500.02, -187500.02, 0.000, 0.000, 0.000, 21:16:18.155, 1592536578155
70, 15460.30, 150646.81, 187500.00, 187500.00, -187500.02, -187500.02, -187500.02, -187500.02, 0.000, 0.000, 0.000, 21:16:18.155, 1592536578155
71, 15467.94, 150575.30, 187500.00, 187500.00, -187500.02, -187500.02, -187500.02, -187500.02, 0.000, 0.000, 0.000, 21:16:18.156, 1592536578156
72, 15471.88, 150555.91, 187500.00, 187500.00, -187500.02, -187500.02, -187500.02, -187500.02, 0.000, 0.000, 0.000, 21:16:18.167, 1592536578167
73, 15466.27, 150696.97, 187500.00, 187500.00, -187500.02, -187500.02, -187500.02, -187500.02, 0.000, 0.000, 0.000, 21:16:18.167, 1592536578167
74, 15464.86, 150830.75, 187500.00, 187500.00, -187500.02, -187500.02, -187500.02, -187500.02, 0.018, -0.050, 0.976, 21:16:18.167, 1592536578167
75, 15469.82, 150885.77, 187500.00, 187500.00, -187500.02, -187500.02, -187500.02, -187500.02, 0.000, 0.000, 0.000, 21:16:18.183, 1592536578183
76, 15482.61, 150903.84, 187500.00, 187500.00, -187500.02, -187500.02, -187500.02, -187500.02, 0.000, 0.000, 0.000, 21:16:18.184, 1592536578184
77, 15464.57, 150765.89, 187500.00, 187500.00, -187500.02, -187500.02, -187500.02, -187500.02, 0.000, 0.000, 0.000, 21:16:18.184, 1592536578184
78, 15444.85, 150628.27, 187500.00, 187500.00, -187500.02, -187500.02, -187500.02, -187500.02, 0.000, 0.000, 0.000, 21:16:18.184, 1592536578184
79, 15447.67, 150569.03, 187500.00, 187500.00, -187500.02, -187500.02, -187500.02, -187500.02, 0.000, 0.000, 0.000, 21:16:18.199, 1592536578199
80, 15443.71, 150548.34, 187500.00, 187500.00, -187500.02, -187500.02, -187500.02, -187500.02, 0.000, 0.000, 0.000, 21:16:18.200, 1592536578200
81, 15446.04, 150689.67, 187500.00, 187500.00, -187500.02, -187500.02, -187500.02, -187500.02, 0.000, 0.000, 0.000, 21:16:18.201, 1592536578201
82, 15447.29, 150831.59, 187500.00, 187500.00, -187500.02, -187500.02, -187500.02, -187500.02, 0.000, 0.000, 0.000, 21:16:18.201, 1592536578201
83, 15451.20, 150899.77, 187500.00, 187500.00, -187500.02, -187500.02, -187500.02, -187500.02, 0.000, 0.000, 0.000, 21:16:18.214, 1592536578214
84, 15449.39, 150899.61, 187500.00, 187500.00, -187500.02, -187500.02, -187500.02, -187500.02, 0.022, -0.048, 0.970, 21:16:18.215, 1592536578215
85, 15443.13, 150761.08, 187500.00, 187500.00, -187500.02, -187500.02, -187500.02, -187500.02, 0.000, 0.000, 0.000, 21:16:18.216, 1592536578216
86, 15439.76, 150637.31, 187500.00, 187500.00, -187500.02, -187500.02, -187500.02, -187500.02, 0.000, 0.000, 0.000, 21:16:18.218, 1592536578218
87, 15437.77, 150581.55, 187500.00, 187500.00, -187500.02, -187500.02, -187500.02, -187500.02, 0.000, 0.000, 0.000, 21:16:18.229, 1592536578229
88, 15439.96, 150566.28, 187500.00, 187500.00, -187500.02, -187500.02, -187500.02, -187500.02, 0.000, 0.000, 0.000, 21:16:18.229, 1592536578229
89, 15442.78, 150699.09, 187500.00, 187500.00, -187500.02, -187500.02, -187500.02, -187500.02, 0.000, 0.000, 0.000, 21:16:18.229, 1592536578229
90, 15447.96, 150834.94, 187500.00, 187500.00, -187500.02, -187500.02, -187500.02, -187500.02, 0.000, 0.000, 0.000, 21:16:18.244, 1592536578244
91, 15451.87, 150895.58, 187500.00, 187500.00, -187500.02, -187500.02, -187500.02, -187500.02, 0.000, 0.000, 0.000, 21:16:18.244, 1592536578244
92, 15445.77, 150893.47, 187500.00, 187500.00, -187500.02, -187500.02, -187500.02, -187500.02, 0.000, 0.000, 0.000, 21:16:18.244, 1592536578244
93, 15446.58, 150757.03, 187500.00, 187500.00, -187500.02, -187500.02, -187500.02, -187500.02, 0.000, 0.000, 0.000, 21:16:18.245, 1592536578245
94, 15457.91, 150647.25, 187500.00, 187500.00, -187500.02, -187500.02, -187500.02, -187500.02, 0.020, -0.046, 0.968, 21:16:18.260, 1592536578260
95, 15459.94, 150608.95, 187500.00, 187500.00, -187500.02, -187500.02, -187500.02, -187500.02, 0.000, 0.000, 0.000, 21:16:18.260, 1592536578260
96, 15448.39, 150599.05, 187500.00, 187500.00, -187500.02, -187500.02, -187500.02, -187500.02, 0.000, 0.000, 0.000, 21:16:18.260, 1592536578260
97, 15448.85, 150732.69, 187500.00, 187500.00, -187500.02, -187500.02, -187500.02, -187500.02, 0.000, 0.000, 0.000, 21:16:18.260, 1592536578260
98, 15459.27, 150873.20, 187500.00, 187500.00, -187500.02, -187500.02, -187500.02, -187500.02, 0.000, 0.000, 0.000, 21:16:18.273, 1592536578273
99, 15467.81, 150950.16, 187500.00, 187500.00, -187500.02, -187500.02, -187500.02, -187500.02, 0.000, 0.000, 0.000, 21:16:18.273, 1592536578273
100, 15450.84, 150942.53, 187500.00, 187500.00, -187500.02, -187500.02, -187500.02, -187500.02, 0.000, 0.000, 0.000, 21:16:18.274, 1592536578274
101, 15437.86, 150791.97, 187500.00, 187500.00, -187500.02, -187500.02, -187500.02, -187500.02, 0.000, 0.000, 0.000, 21:16:18.274, 1592536578274
102, 15439.60, 150669.94, 187500.00, 187500.00, -187500.02, -187500.02, -187500.02, -187500.02, 0.000, 0.000, 0.000, 21:16:18.288, 1592536578288
103, 15442.42, 150624.02, 187500.00, 187500.00, -187500.02, -187500.02, -187500.02, -187500.02, 0.000, 0.000, 0.000, 21:16:18.288, 1592536578288
104, 15450.80, 150613.77, 187500.00, 187500.00, -187500.02, -187500.02, -187500.02, -187500.02, 0.016, -0.050, 0.966, 21:16:18.288, 1592536578288
105, 15451.04, 150732.89, 187500.00, 187500.00, -187500.02, -187500.02, -187500.02, -187500.02, 0.000, 0.000, 0.000, 21:16:18.302, 1592536578302
106, 15443.58, 150848.75, 187500.00, 187500.00, -187500.02, -187500.02, -187500.02, -187500.02, 0.000, 0.000, 0.000, 21:16:18.302, 1592536578302
107, 15450.17, 150917.66, 187500.00, 187500.00, -187500.02, -187500.02, -187500.02, -187500.02, 0.000, 0.000, 0.000, 21:16:18.303, 1592536578303
108, 15452.57, 150933.33, 187500.00, 187500.00, -187500.02, -187500.02, -187500.02, -187500.02, 0.000, 0.000, 0.000, 21:16:18.303, 1592536578303
109, 15443.00, 150780.42, 187500.00, 187500.00, -187500.02, -187500.02, -187500.02, -187500.02, 0.000, 0.000, 0.000, 21:16:18.318, 1592536578318
110, 15444.09, 150653.38, 187500.00, 187500.00, -187500.02, -187500.02, -187500.02, -187500.02, 0.000, 0.000, 0.000, 21:16:18.319, 1592536578319
111, 15445.81, 150603.23, 187500.00, 187500.00, -187500.02, -187500.02, -187500.02, -187500.02, 0.000, 0.000, 0.000, 21:16:18.319, 1592536578319
112, 15449.37, 150594.63, 187500.00, 187500.00, -187500.02, -187500.02, -187500.02, -187500.02, 0.000, 0.000, 0.000, 21:16:18.319, 1592536578319
113, 15445.86, 150717.41, 187500.00, 187500.00, -187500.02, -187500.02, -187500.02, -187500.02, 0.000, 0.000, 0.000, 21:16:18.334, 1592536578334
114, 15444.12, 150838.94, 187500.00, 187500.00, -187500.02, -187500.02, -187500.02, -187500.02, 0.014, -0.054, 0.970, 21:16:18.334, 1592536578334
115, 15450.93, 150908.53, 187500.00, 187500.00, -187500.02, -187500.02, -187500.02, -187500.02, 0.000, 0.000, 0.000, 21:16:18.335, 1592536578335
116, 15459.87, 150927.80, 187500.00, 187500.00, -187500.02, -187500.02, -187500.02, -187500.02, 0.000, 0.000, 0.000, 21:16:18.335, 1592536578335
117, 15466.83, 150794.97, 187500.00, 187500.00, -187500.02, -187500.02, -187500.02, -187500.02, 0.000, 0.000, 0.000, 21:16:18.349, 1592536578349
118, 15460.43, 150657.09, 187500.00, 187500.00, -187500.02, -187500.02, -187500.02, -187500.02, 0.000, 0.000, 0.000, 21:16:18.350, 1592536578350
119, 15452.16, 150595.45, 187500.00, 187500.00, -187500.02, -187500.02, -187500.02, -187500.02, 0.000, 0.000, 0.000, 21:16:18.351, 1592536578351
120, 15460.05, 150599.14, 187500.00, 187500.00, -187500.02, -187500.02, -187500.02, -187500.02, 0.000, 0.000, 0.000, 21:16:18.364, 1592536578364
121, 15460.28, 150727.11, 187500.00, 187500.00, -187500.02, -187500.02, -187500.02, -187500.02, 0.000, 0.000, 0.000, 21:16:18.364, 1592536578364
122, 15455.99, 150843.27, 187500.00, 187500.00, -187500.02, -187500.02, -187500.02, -187500.02, 0.000, 0.000, 0.000, 21:16:18.365, 1592536578365
123, 15452.39, 150894.30, 187500.00, 187500.00, -187500.02, -187500.02, -187500.02, -187500.02, 0.016, -0.050, 0.966, 21:16:18.366, 1592536578366
124, 15454.24, 150908.73, 187500.00, 187500.00, -187500.02, -187500.02, -187500.02, -187500.02, 0.000, 0.000, 0.000, 21:16:18.380, 1592536578380
125, 15459.49, 150765.91, 187500.00, 187500.00, -187500.02, -187500.02, -187500.02, -187500.02, 0.000, 0.000, 0.000, 21:16:18.380, 1592536578380
126, 15459.52, 150620.98, 187500.00, 187500.00, -187500.02, -187500.02, -187500.02, -187500.02, 0.000, 0.000, 0.000, 21:16:18.380, 1592536578380
127, 15453.53, 150556.72, 187500.00, 187500.00, -187500.02, -187500.02, -187500.02, -187500.02, 0.000, 0.000, 0.000, 21:16:18.381, 1592536578381
128, 15461.30, 150566.33, 187500.00, 187500.00, -187500.02, -187500.02, -187500.02, -187500.02, 0.000, 0.000, 0.000, 21:16:18.393, 1592536578393
129, 15463.76, 150698.05, 187500.00, 187500.00, -187500.02, -187500.02, -187500.02, -187500.02, 0.000, 0.000, 0.000, 21:16:18.393, 1592536578393
130, 15454.96, 150799.66, 187500.00, 187500.00, -187500.02, -187500.02, -187500.02, -187500.02, 0.000, 0.000, 0.000, 21:16:18.394, 1592536578394
131, 15456.81, 150851.42, 187500.00, 187500.00, -187500.02, -187500.02, -187500.02, -187500.02, 0.000, 0.000, 0.000, 21:16:18.394, 1592536578394
132, 15458.38, 150862.63, 187500.00, 187500.00, -187500.02, -187500.02, -187500.02, -187500.02, 0.000, 0.000, 0.000, 21:16:18.408, 1592536578408
133, 15456.68, 150725.52, 187500.00, 187500.00, -187500.02, -187500.02, -187500.02, -187500.02, 0.016, -0.054, 0.968, 21:16:18.409, 1592536578409
134, 15452.59, 150583.92, 187500.00, 187500.00, -187500.02, -187500.02, -187500.02, -187500.02, 0.000, 0.000, 0.000, 21:16:18.409, 1592536578409
135, 15447.02, 150514.78, 187500.00, 187500.00, -187500.02, -187500.02, -187500.02, -187500.02, 0.000, 0.000, 0.000, 21:16:18.423, 1592536578423
136, 15447.47, 150511.05, 187500.00, 187500.00, -187500.02, -187500.02, -187500.02, -187500.02, 0.000, 0.000, 0.000, 21:16:18.423, 1592536578423
137, 15459.43, 150666.53, 187500.00, 187500.00, -187500.02, -187500.02, -187500.02, -187500.02, 0.000, 0.000, 0.000, 21:16:18.423, 1592536578423
138, 15461.64, 150789.98, 187500.00, 187500.00, -187500.02, -187500.02, -187500.02, -187500.02, 0.000, 0.000, 0.000, 21:16:18.423, 1592536578423
139, 15463.16, 150848.03, 187500.00, 187500.00, -187500.02, -187500.02, -187500.02, -187500.02, 0.000, 0.000, 0.000, 21:16:18.439, 1592536578439
140, 15465.37, 150873.05, 187500.00, 187500.00, -187500.02, -187500.02, -187500.02, -187500.02, 0.000, 0.000, 0.000, 21:16:18.439, 1592536578439
141, 15468.73, 150749.84, 187500.00, 187500.00, -187500.02, -187500.02, -187500.02, -187500.02, 0.000, 0.000, 0.000, 21:16:18.439, 1592536578439
142, 15467.05, 150611.06, 187500.00, 187500.00, -187500.02, -187500.02, -187500.02, -187500.02, 0.000, 0.000, 0.000, 21:16:18.439, 1592536578439
143, 15460.83, 150544.97, 187500.00, 187500.00, -187500.02, -187500.02, -187500.02, -187500.02, 0.018, -0.042, 0.976, 21:16:18.454, 1592536578454
144, 15470.04, 150553.05, 187500.00, 187500.00, -187500.02, -187500.02, -187500.02, -187500.02, 0.000, 0.000, 0.000, 21:16:18.454, 1592536578454
145, 15475.10, 150707.09, 187500.00, 187500.00, -187500.02, -187500.02, -187500.02, -187500.02, 0.000, 0.000, 0.000, 21:16:18.454, 1592536578454
146, 15467.92, 150821.67, 187500.00, 187500.00, -187500.02, -187500.02, -187500.02, -187500.02, 0.000, 0.000, 0.000, 21:16:18.454, 1592536578454
147, 15460.23, 150859.31, 187500.00, 187500.00, -187500.02, -187500.02, -187500.02, -187500.02, 0.000, 0.000, 0.000, 21:16:18.468, 1592536578468
148, 15458.42, 150879.66, 187500.00, 187500.00, -187500.02, -187500.02, -187500.02, -187500.02, 0.000, 0.000, 0.000, 21:16:18.468, 1592536578468
149, 15464.63, 150765.59, 187500.00, 187500.00, -187500.02, -187500.02, -187500.02, -187500.02, 0.000, 0.000, 0.000, 21:16:18.468, 1592536578468
150, 15462.22, 150633.63, 187500.00, 187500.00, -187500.02, -187500.02, -187500.02, -187500.02, 0.000, 0.000, 0.000, 21:16:18.484, 1592536578484
151, 15461.86, 150556.16, 187500.00, 187500.00, -187500.02, -187500.02, -187500.02, -187500.02, 0.000, 0.000, 0.000, 21:16:18.485, 1592536578485
152, 15461.39, 150543.98, 187500.00, 187500.00, -187500.02, -187500.02, -187500.02, -187500.02, 0.000, 0.000, 0.000, 21:16:18.485, 1592536578485
153, 15460.90, 150691.91, 187500.00, 187500.00, -187500.02, -187500.02, -187500.02, -187500.02, 0.018, -0.042, 0.972, 21:16:18.485, 1592536578485
154, 15462.67, 150827.73, 187500.00, 187500.00, -187500.02, -187500.02, -187500.02, -187500.02, 0.000, 0.000, 0.000, 21:16:18.499, 1592536578499
155, 15459.38, 150869.05, 187500.00, 187500.00, -187500.02, -187500.02, -187500.02, -187500.02, 0.000, 0.000, 0.000, 21:16:18.500, 1592536578500
156, 15459.14, 150873.59, 187500.00, 187500.00, -187500.02, -187500.02, -187500.02, -187500.02, 0.000, 0.000, 0.000, 21:16:18.500, 1592536578500
157, 15466.16, 150756.52, 187500.00, 187500.00, -187500.02, -187500.02, -187500.02, -187500.02, 0.000, 0.000, 0.000, 21:16:18.501, 1592536578501
158, 15467.76, 150632.95, 187500.00, 187500.00, -187500.02, -187500.02, -187500.02, -187500.02, 0.000, 0.000, 0.000, 21:16:18.515, 1592536578515
159, 15455.27, 150550.27, 187500.00, 187500.00, -187500.02, -187500.02, -187500.02, -187500.02, 0.000, 0.000, 0.000, 21:16:18.516, 1592536578516
160, 15449.73, 150530.61, 187500.00, 187500.00, -187500.02, -187500.02, -187500.02, -187500.02, 0.000, 0.000, 0.000, 21:16:18.516, 1592536578516
161, 15461.89, 150687.55, 187500.00, 187500.00, -187500.02, -187500.02, -187500.02, -187500.02, 0.000, 0.000, 0.000, 21:16:18.517, 1592536578517
162, 15466.71, 150820.30, 187500.00, 187500.00, -187500.02, -187500.02, -187500.02, -187500.02, 0.000, 0.000, 0.000, 21:16:18.528, 1592536578528
163, 15463.52, 150854.13, 187500.00, 187500.00, -187500.02, -187500.02, -187500.02, -187500.02, 0.020, -0.046, 0.966, 21:16:18.528, 1592536578528
164, 15466.09, 150857.73, 187500.00, 187500.00, -187500.02, -187500.02, -187500.02, -187500.02, 0.000, 0.000, 0.000, 21:16:18.528, 1592536578528
165, 15464.46, 150720.58, 187500.00, 187500.00, -187500.02, -187500.02, -187500.02, -187500.02, 0.000, 0.000, 0.000, 21:16:18.544, 1592536578544
166, 15464.46, 150603.30, 187500.00, 187500.00, -187500.02, -187500.02, -187500.02, -187500.02, 0.000, 0.000, 0.000, 21:16:18.544, 1592536578544
167, 15449.64, 150516.86, 187500.00, 187500.00, -187500.02, -187500.02, -187500.02, -187500.02, 0.000, 0.000, 0.000, 21:16:18.545, 1592536578545
168, 15437.79, 150474.59, 187500.00, 187500.00, -187500.02, -187500.02, -187500.02, -187500.02, 0.000, 0.000, 0.000, 21:16:18.545, 1592536578545
169, 15457.19, 150634.59, 187500.00, 187500.00, -187500.02, -187500.02, -187500.02, -187500.02, 0.000, 0.000, 0.000, 21:16:18.558, 1592536578558
170, 15456.54, 150769.39, 187500.00, 187500.00, -187500.02, -187500.02, -187500.02, -187500.02, 0.000, 0.000, 0.000, 21:16:18.558, 1592536578558
171, 15434.30, 150792.44, 187500.00, 187500.00, -187500.02, -187500.02, -187500.02, -187500.02, 0.000, 0.000, 0.000, 21:16:18.559, 1592536578559
172, 15439.42, 150794.86, 187500.00, 187500.00, -187500.02, -187500.02, -187500.02, -187500.02, 0.000, 0.000, 0.000, 21:16:18.559, 1592536578559
173, 15449.32, 150681.52, 187500.00, 187500.00, -187500.02, -187500.02, -187500.02, -187500.02, 0.018, -0.038, 0.974, 21:16:18.573, 1592536578573
174, 15459.49, 150577.84, 187500.00, 187500.00, -187500.02, -187500.02, -187500.02, -187500.02, 0.000, 0.000, 0.000, 21:16:18.573, 1592536578573
175, 15456.88, 150507.86, 187500.00, 187500.00, -187500.02, -187500.02, -187500.02, -187500.02, 0.000, 0.000, 0.000, 21:16:18.574, 1592536578574
176, 15463.45, 150480.03, 187500.00, 187500.00, -187500.02, -187500.02, -187500.02, -187500.02, 0.000, 0.000, 0.000, 21:16:18.574, 1592536578574
177, 15460.81, 150611.03, 187500.00, 187500.00, -187500.02, -187500.02, -187500.02, -187500.02, 0.000, 0.000, 0.000, 21:16:18.588, 1592536578588
178, 15458.96, 150752.36, 187500.00, 187500.00, -187500.02, -187500.02, -187500.02, -187500.02, 0.000, 0.000, 0.000, 21:16:18.588, 1592536578588
179, 15464.52, 150806.64, 187500.00, 187500.00, -187500.02, -187500.02, -187500.02, -187500.02, 0.000, 0.000, 0.000, 21:16:18.588, 1592536578588
180, 15471.36, 150799.64, 187500.00, 187500.00, -187500.02, -187500.02, -187500.02, -187500.02, 0.000, 0.000, 0.000, 21:16:18.588, 1592536578588
181, 15459.11, 150649.95, 187500.00, 187500.00, -187500.02, -187500.02, -187500.02, -187500.02, 0.000, 0.000, 0.000, 21:16:18.604, 1592536578604
182, 15464.01, 150551.73, 187500.00, 187500.00, -187500.02, -187500.02, -187500.02, -187500.02, 0.000, 0.000, 0.000, 21:16:18.604, 1592536578604
183, 15459.43, 150492.19, 187500.00, 187500.00, -187500.02, -187500.02, -187500.02, -187500.02, 0.010, -0.042, 0.976, 21:16:18.604, 1592536578604
184, 15459.38, 150457.80, 187500.00, 187500.00, -187500.02, -187500.02, -187500.02, -187500.02, 0.000, 0.000, 0.000, 21:16:18.618, 1592536578618
185, 15460.32, 150584.25, 187500.00, 187500.00, -187500.02, -187500.02, -187500.02, -187500.02, 0.000, 0.000, 0.000, 21:16:18.619, 1592536578619
186, 15459.81, 150725.88, 187500.00, 187500.00, -187500.02, -187500.02, -187500.02, -187500.02, 0.000, 0.000, 0.000, 21:16:18.619, 1592536578619
187, 15453.59, 150786.83, 187500.00, 187500.00, -187500.02, -187500.02, -187500.02, -187500.02, 0.000, 0.000, 0.000, 21:16:18.619, 1592536578619
188, 15438.93, 150758.91, 187500.00, 187500.00, -187500.02, -187500.02, -187500.02, -187500.02, 0.000, 0.000, 0.000, 21:16:18.634, 1592536578634
189, 15438.42, 150609.48, 187500.00, 187500.00, -187500.02, -187500.02, -187500.02, -187500.02, 0.000, 0.000, 0.000, 21:16:18.634, 1592536578634
190, 15453.57, 150516.67, 187500.00, 187500.00, -187500.02, -187500.02, -187500.02, -187500.02, 0.000, 0.000, 0.000, 21:16:18.635, 1592536578635
191, 15461.35, 150486.75, 187500.00, 187500.00, -187500.02, -187500.02, -187500.02, -187500.02, 0.000, 0.000, 0.000, 21:16:18.635, 1592536578635
192, 15459.32, 150453.08, 187500.00, 187500.00, -187500.02, -187500.02, -187500.02, -187500.02, 0.000, 0.000, 0.000, 21:16:18.650, 1592536578650
193, 15456.83, 150564.91, 187500.00, 187500.00, -187500.02, -187500.02, -187500.02, -187500.02, 0.008, -0.046, 0.972, 21:16:18.651, 1592536578651
194, 15480.62, 150731.59, 187500.00, 187500.00, -187500.02, -187500.02, -187500.02, -187500.02, 0.000, 0.000, 0.000, 21:16:18.651, 1592536578651
195, 15465.62, 150795.61, 187500.00, 187500.00, -187500.02, -187500.02, -187500.02, -187500.02, 0.000, 0.000, 0.000, 21:16:18.652, 1592536578652
196, 15449.32, 150775.41, 187500.00, 187500.00, -187500.02, -187500.02, -187500.02, -187500.02, 0.000, 0.000, 0.000, 21:16:18.663, 1592536578663
197, 15449.01, 150624.11, 187500.00, 187500.00, -187500.02, -187500.02, -187500.02, -187500.02, 0.000, 0.000, 0.000, 21:16:18.664, 1592536578664
198, 15453.35, 150517.72, 187500.00, 187500.00, -187500.02, -187500.02, -187500.02, -187500.02, 0.000, 0.000, 0.000, 21:16:18.664, 1592536578664
199, 15454.64, 150479.61, 187500.00, 187500.00, -187500.02, -187500.02, -187500.02, -187500.02, 0.000, 0.000, 0.000, 21:16:18.679, 1592536578679
200, 15452.45, 150455.55, 187500.00, 187500.00, -187500.02, -187500.02, -187500.02, -187500.02, 0.000, 0.000, 0.000, 21:16:18.680, 1592536578680
201, 15446.44, 150560.03, 187500.00, 187500.00, -187500.02, -187500.02, -187500.02, -187500.02, 0.000, 0.000, 0.000, 21:16:18.680, 1592536578680
202, 15445.17, 150693.58, 187500.00, 187500.00, -187500.02, -187500.02, -187500.02, -187500.02, 0.000, 0.000, 0.000, 21:16:18.680, 1592536578680
203, 15453.97, 150785.06, 187500.00, 187500.00, -187500.02, -187500.02, -187500.02, -187500.02, 0.012, -0.046, 0.970, 21:16:18.693, 1592536578693
204, 15444.14, 150780.58, 187500.00, 187500.00, -187500.02, -187500.02, -187500.02, -187500.02, 0.000, 0.000, 0.000, 21:16:18.694, 1592536578694
205, 15436.92, 150615.14, 187500.00, 187500.00, -187500.02, -187500.02, -187500.02, -187500.02, 0.000, 0.000, 0.000, 21:16:18.694, 1592536578694
206, 15445.97, 150491.25, 187500.00, 187500.00, -187500.02, -187500.02, -187500.02, -187500.02, 0.000, 0.000, 0.000, 21:16:18.694, 1592536578694
207, 15456.86, 150470.03, 187500.00, 187500.00, -187500.02, -187500.02, -187500.02, -187500.02, 0.000, 0.000, 0.000, 21:16:18.709, 1592536578709
208, 15458.18, 150465.97, 187500.00, 187500.00, -187500.02, -187500.02, -187500.02, -187500.02, 0.000, 0.000, 0.000, 21:16:18.709, 1592536578709
209, 15454.04, 150559.64, 187500.00, 187500.00, -187500.02, -187500.02, -187500.02, -187500.02, 0.000, 0.000, 0.000, 21:16:18.709, 1592536578709
210, 15458.82, 150679.27, 187500.00, 187500.00, -187500.02, -187500.02, -187500.02, -187500.02, 0.000, 0.000, 0.000, 21:16:18.710, 1592536578710
211, 15470.60, 150778.36, 187500.00, 187500.00, -187500.02, -187500.02, -187500.02, -187500.02, 0.000, 0.000, 0.000, 21:16:18.723, 1592536578723
212, 15471.47, 150799.14, 187500.00, 187500.00, -187500.02, -187500.02, -187500.02, -187500.02, 0.014, -0.044, 0.968, 21:16:18.723, 1592536578723
213, 15469.53, 150634.39, 187500.00, 187500.00, -187500.02, -187500.02, -187500.02, -187500.02, 0.000, 0.000, 0.000, 21:16:18.723, 1592536578723
214, 15467.09, 150493.98, 187500.00, 187500.00, -187500.02, -187500.02, -187500.02, -187500.02, 0.000, 0.000, 0.000, 21:16:18.738, 1592536578738
215, 15478.54, 150464.47, 187500.00, 187500.00, -187500.02, -187500.02, -187500.02, -187500.02, 0.000, 0.000, 0.000, 21:16:18.738, 1592536578738
216, 15485.91, 150474.78, 187500.00, 187500.00, -187500.02, -187500.02, -187500.02, -187500.02, 0.000, 0.000, 0.000, 21:16:18.738, 1592536578738
217, 15474.34, 150572.72, 187500.00, 187500.00, -187500.02, -187500.02, -187500.02, -187500.02, 0.000, 0.000, 0.000, 21:16:18.738, 1592536578738
218, 15476.50, 150676.88, 187500.00, 187500.00, -187500.02, -187500.02, -187500.02, -187500.02, 0.000, 0.000, 0.000, 21:16:18.753, 1592536578753
219, 15481.35, 150753.53, 187500.00, 187500.00, -187500.02, -187500.02, -187500.02, -187500.02, 0.000, 0.000, 0.000, 21:16:18.754, 1592536578754
220, 15480.91, 150785.22, 187500.00, 187500.00, -187500.02, -187500.02, -187500.02, -187500.02, 0.000, 0.000, 0.000, 21:16:18.754, 1592536578754
221, 15477.04, 150630.69, 187500.00, 187500.00, -187500.02, -187500.02, -187500.02, -187500.02, 0.000, 0.000, 0.000, 21:16:18.754, 1592536578754
222, 15470.96, 150468.92, 187500.00, 187500.00, -187500.02, -187500.02, -187500.02, -187500.02, 0.018, -0.046, 0.974, 21:16:18.768, 1592536578768
223, 15476.93, 150431.30, 187500.00, 187500.00, -187500.02, -187500.02, -187500.02, -187500.02, 0.000, 0.000, 0.000, 21:16:18.769, 1592536578769
224, 15485.20, 150455.91, 187500.00, 187500.00, -187500.02, -187500.02, -187500.02, -187500.02, 0.000, 0.000, 0.000, 21:16:18.769, 1592536578769
225, 15473.17, 150562.69, 187500.00, 187500.00, -187500.02, -187500.02, -187500.02, -187500.02, 0.000, 0.000, 0.000, 21:16:18.769, 1592536578769
226, 15459.67, 150649.48, 187500.00, 187500.00, -187500.02, -187500.02, -187500.02, -187500.02, 0.000, 0.000, 0.000, 21:16:18.784, 1592536578784
227, 15464.05, 150713.06, 187500.00, 187500.00, -187500.02, -187500.02, -187500.02, -187500.02, 0.000, 0.000, 0.000, 21:16:18.785, 1592536578785
228, 15475.43, 150756.91, 187500.00, 187500.00, -187500.02, -187500.02, -187500.02, -187500.02, 0.000, 0.000, 0.000, 21:16:18.785, 1592536578785
229, 15468.01, 150612.22, 187500.00, 187500.00, -187500.02, -187500.02, -187500.02, -187500.02, 0.000, 0.000, 0.000, 21:16:18.799, 1592536578799
230, 15460.03, 150445.31, 187500.00, 187500.00, -187500.02, -187500.02, -187500.02, -187500.02, 0.000, 0.000, 0.000, 21:16:18.799, 1592536578799
231, 15463.70, 150390.27, 187500.00, 187500.00, -187500.02, -187500.02, -187500.02, -187500.02, 0.000, 0.000, 0.000, 21:16:18.800, 1592536578800
232, 15463.96, 150410.50, 187500.00, 187500.00, -187500.02, -187500.02, -187500.02, -187500.02, 0.022, -0.040, 0.970, 21:16:18.800, 1592536578800
233, 15449.99, 150534.48, 187500.00, 187500.00, -187500.02, -187500.02, -187500.02, -187500.02, 0.000, 0.000, 0.000, 21:16:18.814, 1592536578814
234, 15441.21, 150622.03, 187500.00, 187500.00, -187500.02, -187500.02, -187500.02, -187500.02, 0.000, 0.000, 0.000, 21:16:18.815, 1592536578815
235, 15449.68, 150682.33, 187500.00, 187500.00, -187500.02, -187500.02, -187500.02, -187500.02, 0.000, 0.000, 0.000, 21:16:18.815, 1592536578815
236, 15467.32, 150737.97, 187500.00, 187500.00, -187500.02, -187500.02, -187500.02, -187500.02, 0.000, 0.000, 0.000, 21:16:18.816, 1592536578816
237, 15469.08, 150619.11, 187500.00, 187500.00, -187500.02, -187500.02, -187500.02, -187500.02, 0.000, 0.000, 0.000, 21:16:18.829, 1592536578829
238, 15479.70, 150475.97, 187500.00, 187500.00, -187500.02, -187500.02, -187500.02, -187500.02, 0.000, 0.000, 0.000, 21:16:18.830, 1592536578830
239, 15466.33, 150394.36, 187500.00, 187500.00, -187500.02, -187500.02, -187500.02, -187500.02, 0.000, 0.000, 0.000, 21:16:18.830, 1592536578830
240, 15441.03, 150373.91, 187500.00, 187500.00, -187500.02, -187500.02, -187500.02, -187500.02, 0.000, 0.000, 0.000, 21:16:18.831, 1592536578831
241, 15450.87, 150528.25, 187500.00, 187500.00, -187500.02, -187500.02, -187500.02, -187500.02, 0.000, 0.000, 0.000, 21:16:18.844, 1592536578844
242, 15425.97, 150613.89, 187500.00, 187500.00, -187500.02, -187500.02, -187500.02, -187500.02, 0.022, -0.042, 0.972, 21:16:18.844, 1592536578844
243, 15419.71, 150643.48, 187500.00, 187500.00, -187500.02, -187500.02, -187500.02, -187500.02, 0.000, 0.000, 0.000, 21:16:18.844, 1592536578844
244, 15437.32, 150679.25, 187500.00, 187500.00, -187500.02, -187500.02, -187500.02, -187500.02, 0.000, 0.000, 0.000, 21:16:18.858, 1592536578858
245, 15442.17, 150578.33, 187500.00, 187500.00, -187500.02, -187500.02, -187500.02, -187500.02, 0.000, 0.000, 0.000, 21:16:18.858, 1592536578858
246, 15428.38, 150430.25, 187500.00, 187500.00, -187500.02, -187500.02, -187500.02, -187500.02, 0.000, 0.000, 0.000, 21:16:18.858, 1592536578858
247, 15430.62, 150343.39, 187500.00, 187500.00, -187500.02, -187500.02, -187500.02, -187500.02, 0.000, 0.000, 0.000, 21:16:18.859, 1592536578859
248, 15449.32, 150355.58, 187500.00, 187500.00, -187500.02, -187500.02, -187500.02, -187500.02, 0.000, 0.000, 0.000, 21:16:18.874, 1592536578874
249, 15460.39, 150527.77, 187500.00, 187500.00, -187500.02, -187500.02, -187500.02, -187500.02, 0.000, 0.000, 0.000, 21:16:18.874, 1592536578874
250, 15444.00, 150630.39, 187500.00, 187500.00, -187500.02, -187500.02, -187500.02, -187500.02, 0.000, 0.000, 0.000, 21:16:18.875, 1592536578875
251, 15445.39, 150656.75, 187500.00, 187500.00, -187500.02, -187500.02, -187500.02, -187500.02, 0.000, 0.000, 0.000, 21:16:18.875, 1592536578875
252, 15440.88, 150660.81, 187500.00, 187500.00, -187500.02, -187500.02, -187500.02, -187500.02, 0.018, -0.038, 0.972, 21:16:18.889, 1592536578889
253, 15460.54, 150568.14, 187500.00, 187500.00, -187500.02, -187500.02, -187500.02, -187500.02, 0.000, 0.000, 0.000, 21:16:18.889, 1592536578889
254, 15461.89, 150425.94, 187500.00, 187500.00, -187500.02, -187500.02, -187500.02, -187500.02, 0.000, 0.000, 0.000, 21:16:18.889, 1592536578889
255, 15445.03, 150318.66, 187500.00, 187500.00, -187500.02, -187500.02, -187500.02, -187500.02, 0.000, 0.000, 0.000, 21:16:18.889, 1592536578889
0, 15462.51, 150330.08, 187500.00, 187500.00, -187500.02, -187500.02, -187500.02, -187500.02, 0.000, 0.000, 0.000, 21:16:18.905, 1592536578905
1, 15487.77, 150512.70, 187500.00, 187500.00, -187500.02, -187500.02, -187500.02, -187500.02, 0.000, 0.000, 0.000, 21:16:18.905, 1592536578905
2, 15472.61, 150627.17, 187500.00, 187500.00, -187500.02, -187500.02, -187500.02, -187500.02, 0.000, 0.000, 0.000, 21:16:18.905, 1592536578905
3, 15450.60, 150635.28, 187500.00, 187500.00, -187500.02, -187500.02, -187500.02, -187500.02, 0.000, 0.000, 0.000, 21:16:18.919, 1592536578919
4, 15444.21, 150630.66, 187500.00, 187500.00, -187500.02, -187500.02, -187500.02, -187500.02, 0.000, 0.000, 0.000, 21:16:18.920, 1592536578920
5, 15459.63, 150536.53, 187500.00, 187500.00, -187500.02, -187500.02, -187500.02, -187500.02, 0.000, 0.000, 0.000, 21:16:18.920, 1592536578920
6, 15457.15, 150423.13, 187500.00, 187500.00, -187500.02, -187500.02, -187500.02, -187500.02, 0.018, -0.038, 0.974, 21:16:18.920, 1592536578920
7, 15451.34, 150338.72, 187500.00, 187500.00, -187500.02, -187500.02, -187500.02, -187500.02, 0.000, 0.000, 0.000, 21:16:18.934, 1592536578934
8, 15452.95, 150309.75, 187500.00, 187500.00, -187500.02, -187500.02, -187500.02, -187500.02, 0.000, 0.000, 0.000, 21:16:18.935, 1592536578935
9, 15439.74, 150447.34, 187500.00, 187500.00, -187500.02, -187500.02, -187500.02, -187500.02, 0.000, 0.000, 0.000, 21:16:18.935, 1592536578935
10, 15449.23, 150601.48, 187500.00, 187500.00, -187500.02, -187500.02, -187500.02, -187500.02, 0.000, 0.000, 0.000, 21:16:18.935, 1592536578935
11, 15441.30, 150631.48, 187500.00, 187500.00, -187500.02, -187500.02, -187500.02, -187500.02, 0.000, 0.000, 0.000, 21:16:18.950, 1592536578950
12, 15441.25, 150619.27, 187500.00, 187500.00, -187500.02, -187500.02, -187500.02, -187500.02, 0.000, 0.000, 0.000, 21:16:18.951, 1592536578951
13, 15445.46, 150500.55, 187500.00, 187500.00, -187500.02, -187500.02, -187500.02, -187500.02, 0.000, 0.000, 0.000, 21:16:18.951, 1592536578951
14, 15446.26, 150395.63, 187500.00, 187500.00, -187500.02, -187500.02, -187500.02, -187500.02, 0.000, 0.000, 0.000, 21:16:18.952, 1592536578952
15, 15434.50, 150319.20, 187500.00, 187500.00, -187500.02, -187500.02, -187500.02, -187500.02, 0.000, 0.000, 0.000, 21:16:18.963, 1592536578963
16, 15429.10, 150282.34, 187500.00, 187500.00, -187500.02, -187500.02, -187500.02, -187500.02, 0.016, -0.044, 0.974, 21:16:18.963, 1592536578963
17, 15443.31, 150435.70, 187500.00, 187500.00, -187500.02, -187500.02, -187500.02, -187500.02, 0.000, 0.000, 0.000, 21:16:18.964, 1592536578964
18, 15456.83, 150599.91, 187500.00, 187500.00, -187500.02, -187500.02, -187500.02, -187500.02, 0.000, 0.000, 0.000, 21:16:18.979, 1592536578979
19, 15441.30, 150639.98, 187500.00, 187500.00, -187500.02, -187500.02, -187500.02, -187500.02, 0.000, 0.000, 0.000, 21:16:18.979, 1592536578979
20, 15440.56, 150620.64, 187500.00, 187500.00, -187500.02, -187500.02, -187500.02, -187500.02, 0.000, 0.000, 0.000, 21:16:18.980, 1592536578980
21, 15445.08, 150491.73, 187500.00, 187500.00, -187500.02, -187500.02, -187500.02, -187500.02, 0.000, 0.000, 0.000, 21:16:18.980, 1592536578980
22, 15456.50, 150402.73, 187500.00, 187500.00, -187500.02, -187500.02, -187500.02, -187500.02, 0.000, 0.000, 0.000, 21:16:18.993, 1592536578993
23, 15452.01, 150341.45, 187500.00, 187500.00, -187500.02, -187500.02, -187500.02, -187500.02, 0.000, 0.000, 0.000, 21:16:18.994, 1592536578994
24, 15440.29, 150287.52, 187500.00, 187500.00, -187500.02, -187500.02, -187500.02, -187500.02, 0.000, 0.000, 0.000, 21:16:18.994, 1592536578994
25, 15439.71, 150414.92, 187500.00, 187500.00, -187500.02, -187500.02, -187500.02, -187500.02, 0.000, 0.000, 0.000, 21:16:18.994, 1592536578994
26, 15458.22, 150588.92, 187500.00, 187500.00, -187500.02, -187500.02, -187500.02, -187500.02, 0.016, -0.044, 0.968, 21:16:19.009, 1592536579009
27, 15445.37, 150645.70, 187500.00, 187500.00, -187500.02, -187500.02, -187500.02, -187500.02, 0.000, 0.000, 0.000, 21:16:19.009, 1592536579009
28, 15426.66, 150612.83, 187500.00, 187500.00, -187500.02, -187500.02, -187500.02, -187500.02, 0.000, 0.000, 0.000, 21:16:19.010, 1592536579010
29, 15443.65, 150481.97, 187500.00, 187500.00, -187500.02, -187500.02, -187500.02, -187500.02, 0.000, 0.000, 0.000, 21:16:19.010, 1592536579010
30, 15438.64, 150366.14, 187500.00, 187500.00, -187500.02, -187500.02, -187500.02, -187500.02, 0.000, 0.000, 0.000, 21:16:19.023, 1592536579023
31, 15439.00, 150325.00, 187500.00, 187500.00, -187500.02, -187500.02, -187500.02, -187500.02, 0.000, 0.000, 0.000, 21:16:19.024, 1592536579024
32, 15442.89, 150301.81, 187500.00, 187500.00, -187500.02, -187500.02, -187500.02, -187500.02, 0.000, 0.000, 0.000, 21:16:19.024, 1592536579024
33, 15422.01, 150401.34, 187500.00, 187500.00, -187500.02, -187500.02, -187500.02, -187500.02, 0.000, 0.000, 0.000, 21:16:19.040, 1592536579040
34, 15421.07, 150546.45, 187500.00, 187500.00, -187500.02, -187500.02, -187500.02, -187500.02, 0.000, 0.000, 0.000, 21:16:19.040, 1592536579040
35, 15429.74, 150637.81, 187500.00, 187500.00, -187500.02, -187500.02, -187500.02, -187500.02, 0.014, -0.044, 0.966, 21:16:19.041, 1592536579041
36, 15416.36, 150624.58, 187500.00, 187500.00, -187500.02, -187500.02, -187500.02, -187500.02, 0.000, 0.000, 0.000, 21:16:19.041, 1592536579041
37, 15421.43, 150473.39, 187500.00, 187500.00, -187500.02, -187500.02, -187500.02, -187500.02, 0.000, 0.000, 0.000, 21:16:19.054, 1592536579054
38, 15411.73, 150341.42, 187500.00, 187500.00, -187500.02, -187500.02, -187500.02, -187500.02, 0.000, 0.000, 0.000, 21:16:19.054, 1592536579054
39, 15427.91, 150324.70, 187500.00, 187500.00, -187500.02, -187500.02, -187500.02, -187500.02, 0.000, 0.000, 0.000, 21:16:19.054, 1592536579054
40, 15411.48, 150297.48, 187500.00, 187500.00, -187500.02, -187500.02, -187500.02, -187500.02, 0.000, 0.000, 0.000, 21:16:19.054, 1592536579054
41, 15410.88, 150406.52, 187500.00, 187500.00, -187500.02, -187500.02, -187500.02, -187500.02, 0.000, 0.000, 0.000, 21:16:19.069, 1592536579069
42, 15414.68, 150542.33, 187500.00, 187500.00, -187500.02, -187500.02, -187500.02, -187500.02, 0.000, 0.000, 0.000, 21:16:19.069, 1592536579069
43, 15426.82, 150636.58, 187500.00, 187500.00, -187500.02, -187500.02, -187500.02, -187500.02, 0.000, 0.000, 0.000, 21:16:19.069, 1592536579069
44, 15411.77, 150626.08, 187500.00, 187500.00, -187500.02, -187500.02, -187500.02, -187500.02, 0.000, 0.000, 0.000, 21:16:19.070, 1592536579070
45, 15412.24, 150457.36, 187500.00, 187500.00, -187500.02, -187500.02, -187500.02, -187500.02, 0.020, -0.038, 0.966, 21:16:19.085, 1592536579085
46, 15423.98, 150341.94, 187500.00, 187500.00, -187500.02, -187500.02, -187500.02, -187500.02, 0.000, 0.000, 0.000, 21:16:19.086, 1592536579086
47, 15429.81, 150319.72, 187500.00, 187500.00, -187500.02, -187500.02, -187500.02, -187500.02, 0.000, 0.000, 0.000, 21:16:19.087, 1592536579087
48, 15415.64, 150304.81, 187500.00, 187500.00, -187500.02, -187500.02, -187500.02, -187500.02, 0.000, 0.000, 0.000, 21:16:19.087, 1592536579087
49, 15402.18, 150395.00, 187500.00, 187500.00, -187500.02, -187500.02, -187500.02, -187500.02, 0.000, 0.000, 0.000, 21:16:19.100, 1592536579100
50, 15407.19, 150522.83, 187500.00, 187500.00, -187500.02, -187500.02, -187500.02, -187500.02, 0.000, 0.000, 0.000, 21:16:19.101, 1592536579101
51, 15417.25, 150618.52, 187500.00, 187500.00, -187500.02, -187500.02, -187500.02, -187500.02, 0.000, 0.000, 0.000, 21:16:19.101, 1592536579101
52, 15410.07, 150630.19, 187500.00, 187500.00, -187500.02, -187500.02, -187500.02, -187500.02, 0.000, 0.000, 0.000, 21:16:19.116, 1592536579116
53, 15404.89, 150465.44, 187500.00, 187500.00, -187500.02, -187500.02, -187500.02, -187500.02, 0.000, 0.000, 0.000, 21:16:19.117, 1592536579117
54, 15408.40, 150329.25, 187500.00, 187500.00, -187500.02, -187500.02, -187500.02, -187500.02, 0.000, 0.000, 0.000, 21:16:19.118, 1592536579118
55, 15415.01, 150301.08, 187500.00, 187500.00, -187500.02, -187500.02, -187500.02, -187500.02, 0.020, -0.044, 0.970, 21:16:19.119, 1592536579119
56, 15417.29, 150312.33, 187500.00, 187500.00, -187500.02, -187500.02, -187500.02, -187500.02, 0.000, 0.000, 0.000, 21:16:19.131, 1592536579131
57, 15405.87, 150412.39, 187500.00, 187500.00, -187500.02, -187500.02, -187500.02, -187500.02, 0.000, 0.000, 0.000, 21:16:19.132, 1592536579132
58, 15408.98, 150521.98, 187500.00, 187500.00, -187500.02, -187500.02, -187500.02, -187500.02, 0.000, 0.000, 0.000, 21:16:19.132, 1592536579132
59, 15428.96, 150628.05, 187500.00, 187500.00, -187500.02, -187500.02, -187500.02, -187500.02, 0.000, 0.000, 0.000, 21:16:19.132, 1592536579132
60, 15426.15, 150657.25, 187500.00, 187500.00, -187500.02, -187500.02, -187500.02, -187500.02, 0.000, 0.000, 0.000, 21:16:19.145, 1592536579145
61, 15411.06, 150502.16, 187500.00, 187500.00, -187500.02, -187500.02, -187500.02, -187500.02, 0.000, 0.000, 0.000, 21:16:19.145, 1592536579145
62, 15414.75, 150346.56, 187500.00, 187500.00, -187500.02, -187500.02, -187500.02, -187500.02, 0.000, 0.000, 0.000, 21:16:19.145, 1592536579145
63, 15449.82, 150321.20, 187500.00, 187500.00, -187500.02, -187500.02, -187500.02, -187500.02, 0.000, 0.000, 0.000, 21:16:19.145, 1592536579145
64, 15444.36, 150328.47, 187500.00, 187500.00, -187500.02, -187500.02, -187500.02, -187500.02, 0.000, 0.000, 0.000, 21:16:19.158, 1592536579158
65, 15423.80, 150435.75, 187500.00, 187500.00, -187500.02, -187500.02, -187500.02, -187500.02, 0.018, -0.046, 0.970, 21:16:19.158, 1592536579158
66, 15404.11, 150523.92, 187500.00, 187500.00, -187500.02, -187500.02, -187500.02, -187500.02, 0.000, 0.000, 0.000, 21:16:19.158, 1592536579158
67, 15405.25, 150592.06, 187500.00, 187500.00, -187500.02, -187500.02, -187500.02, -187500.02, 0.000, 0.000, 0.000, 21:16:19.174, 1592536579174
68, 15425.32, 150651.84, 187500.00, 187500.00, -187500.02, -187500.02, -187500.02, -187500.02, 0.000, 0.000, 0.000, 21:16:19.175, 1592536579175
69, 15407.10, 150497.17, 187500.00, 187500.00, -187500.02, -187500.02, -187500.02, -187500.02, 0.000, 0.000, 0.000, 21:16:19.175, 1592536579175
70, 15409.47, 150339.30, 187500.00, 187500.00, -187500.02, -187500.02, -187500.02, -187500.02, 0.000, 0.000, 0.000, 21:16:19.175, 1592536579175
71, 15410.48, 150282.23, 187500.00, 187500.00, -187500.02, -187500.02, -187500.02, -187500.02, 0.000, 0.000, 0.000, 21:16:19.189, 1592536579189
72, 15423.64, 150309.06, 187500.00, 187500.00, -187500.02, -187500.02, -187500.02, -187500.02, 0.000, 0.000, 0.000, 21:16:19.189, 1592536579189
73, 15417.58, 150445.36, 187500.00, 187500.00, -187500.02, -187500.02, -187500.02, -187500.02, 0.000, 0.000, 0.000, 21:16:19.189, 1592536579189
74, 15408.96, 150535.39, 187500.00, 187500.00, -187500.02, -187500.02, -187500.02, -187500.02, 0.000, 0.000, 0.000, 21:16:19.189, 1592536579189
75, 15411.82, 150583.81, 187500.00, 187500.00, -187500.02, -187500.02, -187500.02, -187500.02, 0.022, -0.044, 0.974, 21:16:19.204, 1592536579204
76, 15418.05, 150624.88, 187500.00, 187500.00, -187500.02, -187500.02, -187500.02, -187500.02, 0.000, 0.000, 0.000, 21:16:19.204, 1592536579204
77, 15430.44, 150513.89, 187500.00, 187500.00, -187500.02, -187500.02, -187500.02, -187500.02, 0.000, 0.000, 0.000, 21:16:19.204, 1592536579204
78, 15417.65, 150345.73, 187500.00, 187500.00, -187500.02, -187500.02, -187500.02, -187500.02, 0.000, 0.000, 0.000, 21:16:19.204, 1592536579204
79, 15411.04, 150261.91, 187500.00, 187500.00, -187500.02, -187500.02, -187500.02, -187500.02, 0.000, 0.000, 0.000, 21:16:19.218, 1592536579218
80, 15424.04, 150286.23, 187500.00, 187500.00, -187500.02, -187500.02, -187500.02, -187500.02, 0.000, 0.000, 0.000, 21:16:19.219, 1592536579219
81, 15430.82, 150444.31, 187500.00, 187500.00, -187500.02, -187500.02, -187500.02, -187500.02, 0.000, 0.000, 0.000, 21:16:19.219, 1592536579219
82, 15413.52, 150535.75, 187500.00, 187500.00, -187500.02, -187500.02, -187500.02, -187500.02, 0.000, 0.000, 0.000, 21:16:19.234, 1592536579234
83, 15408.13, 150570.08, 187500.00, 187500.00, -187500.02, -187500.02, -187500.02, -187500.02, 0.000, 0.000, 0.000, 21:16:19.235, 1592536579235
84, 15421.54, 150613.72, 187500.00, 187500.00, -187500.02, -187500.02, -187500.02, -187500.02, 0.000, 0.000, 0.000, 21:16:19.235, 1592536579235
85, 15423.84, 150511.30, 187500.00, 187500.00, -187500.02, -187500.02, -187500.02, -187500.02, 0.022, -0.046, 0.974, 21:16:19.235, 1592536579235
86, 15414.63, 150360.45, 187500.00, 187500.00, -187500.02, -187500.02, -187500.02, -187500.02, 0.000, 0.000, 0.000, 21:16:19.251, 1592536579251
87, 15409.92, 150267.83, 187500.00, 187500.00, -187500.02, -187500.02, -187500.02, -187500.02, 0.000, 0.000, 0.000, 21:16:19.251, 1592536579251
88, 15418.81, 150275.33, 187500.00, 187500.00, -187500.02, -187500.02, -187500.02, -187500.02, 0.000, 0.000, 0.000, 21:16:19.252, 1592536579252
89, 15430.59, 150450.95, 187500.00, 187500.00, -187500.02, -187500.02, -187500.02, -187500.02, 0.000, 0.000, 0.000, 21:16:19.252, 1592536579252
90, 15408.06, 150552.00, 187500.00, 187500.00, -187500.02, -187500.02, -187500.02, -187500.02, 0.000, 0.000, 0.000, 21:16:19.264, 1592536579264
91, 15406.16, 150574.73, 187500.00, 187500.00, -187500.02, -187500.02, -187500.02, -187500.02, 0.000, 0.000, 0.000, 21:16:19.265, 1592536579265
92, 15415.95, 150598.67, 187500.00, 187500.00, -187500.02, -187500.02, -187500.02, -187500.02, 0.000, 0.000, 0.000, 21:16:19.266, 1592536579266
93, 15417.67, 150496.55, 187500.00, 187500.00, -187500.02, -187500.02, -187500.02, -187500.02, 0.000, 0.000, 0.000, 21:16:19.266, 1592536579266
94, 15414.79, 150361.14, 187500.00, 187500.00, -187500.02, -187500.02, -187500.02, -187500.02, 0.000, 0.000, 0.000, 21:16:19.280, 1592536579280
95, 15408.98, 150269.47, 187500.00, 187500.00, -187500.02, -187500.02, -187500.02, -187500.02, 0.022, -0.042, 0.976, 21:16:19.280, 1592536579280
96, 15406.45, 150257.05, 187500.00, 187500.00, -187500.02, -187500.02, -187500.02, -187500.02, 0.000, 0.000, 0.000, 21:16:19.280, 1592536579280
97, 15429.63, 150441.39, 187500.00, 187500.00, -187500.02, -187500.02, -187500.02, -187500.02, 0.000, 0.000, 0.000, 21:16:19.293, 1592536579293
98, 15417.18, 150564.09, 187500.00, 187500.00, -187500.02, -187500.02, -187500.02, -187500.02, 0.000, 0.000, 0.000, 21:16:19.294, 1592536579294
99, 15411.86, 150582.00, 187500.00, 187500.00, -187500.02, -187500.02, -187500.02, -187500.02, 0.000, 0.000, 0.000, 21:16:19.294, 1592536579294
100, 15421.05, 150587.61, 187500.00, 187500.00, -187500.02, -187500.02, -187500.02, -187500.02, 0.000, 0.000, 0.000, 21:16:19.294, 1592536579294
101, 15429.36, 150488.80, 187500.00, 187500.00, -187500.02, -187500.02, -187500.02, -187500.02, 0.000, 0.000, 0.000, 21:16:19.309, 1592536579309
102, 15434.57, 150377.02, 187500.00, 187500.00, -187500.02, -187500.02, -187500.02, -187500.02, 0.000, 0.000, 0.000, 21:16:19.309, 1592536579309
103, 15406.25, 150267.64, 187500.00, 187500.00, -187500.02, -187500.02, -187500.02, -187500.02, 0.000, 0.000, 0.000, 21:16:19.309, 1592536579309
104, 15385.73, 150221.98, 187500.00, 187500.00, -187500.02, -187500.02, -187500.02, -187500.02, 0.000, 0.000, 0.000, 21:16:19.310, 1592536579310
105, 15408.20, 150402.25, 187500.00, 187500.00, -187500.02, -187500.02, -187500.02, -187500.02, 0.016, -0.042, 0.976, 21:16:19.324, 1592536579324
106, 15413.72, 150553.14, 187500.00, 187500.00, -187500.02, -187500.02, -187500.02, -187500.02, 0.000, 0.000, 0.000, 21:16:19.324, 1592536579324
107, 15416.98, 150593.73, 187500.00, 187500.00, -187500.02, -187500.02, -187500.02, -187500.02, 0.000, 0.000, 0.000, 21:16:19.324, 1592536579324
108, 15409.87, 150580.75, 187500.00, 187500.00, -187500.02, -187500.02, -187500.02, -187500.02, 0.000, 0.000, 0.000, 21:16:19.324, 1592536579324
109, 15426.01, 150474.31, 187500.00, 187500.00, -187500.02, -187500.02, -187500.02, -187500.02, 0.000, 0.000, 0.000, 21:16:19.339, 1592536579339
110, 15435.49, 150374.39, 187500.00, 187500.00, -187500.02, -187500.02, -187500.02, -187500.02, 0.000, 0.000, 0.000, 21:16:19.339, 1592536579339
111, 15417.54, 150278.91, 187500.00, 187500.00, -187500.02, -187500.02, -187500.02, -187500.02, 0.000, 0.000, 0.000, 21:16:19.339, 1592536579339
112, 15403.08, 150222.69, 187500.00, 187500.00, -187500.02, -187500.02, -187500.02, -187500.02, 0.000, 0.000, 0.000, 21:16:19.354, 1592536579354
113, 15419.98, 150383.73, 187500.00, 187500.00, -187500.02, -187500.02, -187500.02, -187500.02, 0.000, 0.000, 0.000, 21:16:19.354, 1592536579354
114, 15425.30, 150547.53, 187500.00, 187500.00, -187500.02, -187500.02, -187500.02, -187500.02, 0.000, 0.000, 0.000, 21:16:19.354, 1592536579354
115, 15420.54, 150598.77, 187500.00, 187500.00, -187500.02, -187500.02, -187500.02, -187500.02, 0.020, -0.046, 0.978, 21:16:19.354, 1592536579354
116, 15412.76, 150575.97, 187500.00, 187500.00, -187500.02, -187500.02, -187500.02, -187500.02, 0.000, 0.000, 0.000, 21:16:19.369, 1592536579369
117, 15418.61, 150449.88, 187500.00, 187500.00, -187500.02, -187500.02, -187500.02, -187500.02, 0.000, 0.000, 0.000, 21:16:19.369, 1592536579369
118, 15426.08, 150349.70, 187500.00, 187500.00, -187500.02, -187500.02, -187500.02, -187500.02, 0.000, 0.000, 0.000, 21:16:19.369, 1592536579369
119, 15434.75, 150300.41, 187500.00, 187500.00, -187500.02, -187500.02, -187500.02, -187500.02, 0.000, 0.000, 0.000, 21:16:19.369, 1592536579369
120, 15418.99, 150245.67, 187500.00, 187500.00, -187500.02, -187500.02, -187500.02, -187500.02, 0.000, 0.000, 0.000, 21:16:19.385, 1592536579385
121, 15412.35, 150372.88, 187500.00, 187500.00, -187500.02, -187500.02, -187500.02, -187500.02, 0.000, 0.000, 0.000, 21:16:19.385, 1592536579385
122, 15429.81, 150548.16, 187500.00, 187500.00, -187500.02, -187500.02, -187500.02, -187500.02, 0.000, 0.000, 0.000, 21:16:19.385, 1592536579385
123, 15406.01, 150592.66, 187500.00, 187500.00, -187500.02, -187500.02, -187500.02, -187500.02, 0.000, 0.000, 0.000, 21:16:19.385, 1592536579385
124, 15392.48, 150563.98, 187500.00, 187500.00, -187500.02, -187500.02, -187500.02, -187500.02, 0.020, -0.042, 0.976, 21:16:19.399, 1592536579399
125, 15400.22, 150426.28, 187500.00, 187500.00, -187500.02, -187500.02, -187500.02, -187500.02, 0.000, 0.000, 0.000, 21:16:19.400, 1592536579400
126, 15414.86, 150339.50, 187500.00, 187500.00, -187500.02, -187500.02, -187500.02, -187500.02, 0.000, 0.000, 0.000, 21:16:19.400, 1592536579400
127, 15396.80, 150271.47, 187500.00, 187500.00, -187500.02, -187500.02, -187500.02, -187500.02, 0.000, 0.000, 0.000, 21:16:19.415, 1592536579415
128, 15384.55, 150221.16, 187500.00, 187500.00, -187500.02, -187500.02, -187500.02, -187500.02, 0.000, 0.000, 0.000, 21:16:19.416, 1592536579416
129, 15391.77, 150347.70, 187500.00, 187500.00, -187500.02, -187500.02, -187500.02, -187500.02, 0.000, 0.000, 0.000, 21:16:19.417, 1592536579417
130, 15414.17, 150529.58, 187500.00, 187500.00, -187500.02, -187500.02, -187500.02, -187500.02, 0.000, 0.000, 0.000, 21:16:19.417, 1592536579417
131, 15420.02, 150624.06, 187500.00, 187500.00, -187500.02, -187500.02, -187500.02, -187500.02, 0.000, 0.000, 0.000, 21:16:19.430, 1592536579430
132, 15412.49, 150615.73, 187500.00, 187500.00, -187500.02, -187500.02, -187500.02, -187500.02, 0.000, 0.000, 0.000, 21:16:19.430, 1592536579430
133, 15412.51, 150467.38, 187500.00, 187500.00, -187500.02, -187500.02, -187500.02, -187500.02, 0.000, 0.000, 0.000, 21:16:19.430, 1592536579430
134, 15413.74, 150358.64, 187500.00, 187500.00, -187500.02, -187500.02, -187500.02, -187500.02, 0.026, -0.044, 0.976, 21:16:19.431, 1592536579431
135, 15418.68, 150327.86, 187500.00, 187500.00, -187500.02, -187500.02, -187500.02, -187500.02, 0.000, 0.000, 0.000, 21:16:19.445, 1592536579445
136, 15416.31, 150294.59, 187500.00, 187500.00, -187500.02, -187500.02, -187500.02, -187500.02, 0.000, 0.000, 0.000, 21:16:19.446, 1592536579446
137, 15397.80, 150381.56, 187500.00, 187500.00, -187500.02, -187500.02, -187500.02, -187500.02, 0.000, 0.000, 0.000, 21:16:19.447, 1592536579447
138, 15406.12, 150527.33, 187500.00, 187500.00, -187500.02, -187500.02, -187500.02, -187500.02, 0.000, 0.000, 0.000, 21:16:19.447, 1592536579447
139, 15422.90, 150629.89, 187500.00, 187500.00, -187500.02, -187500.02, -187500.02, -187500.02, 0.000, 0.000, 0.000, 21:16:19.458, 1592536579458
140, 15401.04, 150614.88, 187500.00, 187500.00, -187500.02, -187500.02, -187500.02, -187500.02, 0.000, 0.000, 0.000, 21:16:19.458, 1592536579458
141, 15383.41, 150431.50, 187500.00, 187500.00, -187500.02, -187500.02, -187500.02, -187500.02, 0.000, 0.000, 0.000, 21:16:19.458, 1592536579458
142, 15395.30, 150315.30, 187500.00, 187500.00, -187500.02, -187500.02, -187500.02, -187500.02, 0.000, 0.000, 0.000, 21:16:19.474, 1592536579474
143, 15415.80, 150296.36, 187500.00, 187500.00, -187500.02, -187500.02, -187500.02, -187500.02, 0.000, 0.000, 0.000, 21:16:19.474, 1592536579474
144, 15410.68, 150275.58, 187500.00, 187500.00, -187500.02, -187500.02, -187500.02, -187500.02, 0.022, -0.044, 0.972, 21:16:19.475, 1592536579475
145, 15402.41, 150373.14, 187500.00, 187500.00, -187500.02, -187500.02, -187500.02, -187500.02, 0.000, 0.000, 0.000, 21:16:19.475, 1592536579475
146, 15408.13, 150502.00, 187500.00, 187500.00, -187500.02, -187500.02, -187500.02, -187500.02, 0.000, 0.000, 0.000, 21:16:19.489, 1592536579489
147, 15410.83, 150587.16, 187500.00, 187500.00, -187500.02, -187500.02, -187500.02, -187500.02, 0.000, 0.000, 0.000, 21:16:19.489, 1592536579489
148, 15401.65, 150594.50, 187500.00, 187500.00, -187500.02, -187500.02, -187500.02, -187500.02, 0.000, 0.000, 0.000, 21:16:19.489, 1592536579489
149, 15394.52, 150420.97, 187500.00, 187500.00, -187500.02, -187500.02, -187500.02, -187500.02, 0.000, 0.000, 0.000, 21:16:19.489, 1592536579489
150, 15392.62, 150276.34, 187500.00, 187500.00, -187500.02, -187500.02, -187500.02, -187500.02, 0.000, 0.000, 0.000, 21:16:19.505, 1592536579505
151, 15405.92, 150253.20, 187500.00, 187500.00, -187500.02, -187500.02, -187500.02, -187500.02, 0.000, 0.000, 0.000, 21:16:19.505, 1592536579505
152, 15408.46, 150258.72, 187500.00, 187500.00, -187500.02, -187500.02, -187500.02, -187500.02, 0.000, 0.000, 0.000, 21:16:19.505, 1592536579505
153, 15393.44, 150352.09, 187500.00, 187500.00, -187500.02, -187500.02, -187500.02, -187500.02, 0.000, 0.000, 0.000, 21:16:19.505, 1592536579505
154, 15393.13, 150460.70, 187500.00, 187500.00, -187500.02, -187500.02, -187500.02, -187500.02, 0.018, -0.042, 0.970, 21:16:19.518, 1592536579518
155, 15407.33, 150552.98, 187500.00, 187500.00, -187500.02, -187500.02, -187500.02, -187500.02, 0.000, 0.000, 0.000, 21:16:19.519, 1592536579519
156, 15413.14, 150592.17, 187500.00, 187500.00, -187500.02, -187500.02, -187500.02, -187500.02, 0.000, 0.000, 0.000, 21:16:19.519, 1592536579519
157, 15403.88, 150434.50, 187500.00, 187500.00, -187500.02, -187500.02, -187500.02, -187500.02, 0.000, 0.000, 0.000, 21:16:19.536, 1592536579536
158, 15403.10, 150284.77, 187500.00, 187500.00, -187500.02, -187500.02, -187500.02, -187500.02, 0.000, 0.000, 0.000, 21:16:19.536, 1592536579536
159, 15410.05, 150256.31, 187500.00, 187500.00, -187500.02, -187500.02, -187500.02, -187500.02, 0.000, 0.000, 0.000, 21:16:19.536, 1592536579536
160, 15410.48, 150272.92, 187500.00, 187500.00, -187500.02, -187500.02, -187500.02, -187500.02, 0.000, 0.000, 0.000, 21:16:19.536, 1592536579536
161, 15397.69, 150390.58, 187500.00, 187500.00, -187500.02, -187500.02, -187500.02, -187500.02, 0.000, 0.000, 0.000, 21:16:19.550, 1592536579550
162, 15394.58, 150493.58, 187500.00, 187500.00, -187500.02, -187500.02, -187500.02, -187500.02, 0.000, 0.000, 0.000, 21:16:19.550, 1592536579550
163, 15402.52, 150568.63, 187500.00, 187500.00, -187500.02, -187500.02, -187500.02, -187500.02, 0.000, 0.000, 0.000, 21:16:19.551, 1592536579551
164, 15410.63, 150614.75, 187500.00, 187500.00, -187500.02, -187500.02, -187500.02, -187500.02, 0.020, -0.042, 0.972, 21:16:19.551, 1592536579551
165, 15407.12, 150462.27, 187500.00, 187500.00, -187500.02, -187500.02, -187500.02, -187500.02, 0.000, 0.000, 0.000, 21:16:19.565, 1592536579565
166, 15393.29, 150288.36, 187500.00, 187500.00, -187500.02, -187500.02, -187500.02, -187500.02, 0.000, 0.000, 0.000, 21:16:19.566, 1592536579566
167, 15401.20, 150236.39, 187500.00, 187500.00, -187500.02, -187500.02, -187500.02, -187500.02, 0.000, 0.000, 0.000, 21:16:19.566, 1592536579566
168, 15413.72, 150263.80, 187500.00, 187500.00, -187500.02, -187500.02, -187500.02, -187500.02, 0.000, 0.000, 0.000, 21:16:19.567, 1592536579567
169, 15405.13, 150388.00, 187500.00, 187500.00, -187500.02, -187500.02, -187500.02, -187500.02, 0.000, 0.000, 0.000, 21:16:19.580, 1592536579580
170, 15396.75, 150475.16, 187500.00, 187500.00, -187500.02, -187500.02, -187500.02, -187500.02, 0.000, 0.000, 0.000, 21:16:19.580, 1592536579580
171, 15397.54, 150534.41, 187500.00, 187500.00, -187500.02, -187500.02, -187500.02, -187500.02, 0.000, 0.000, 0.000, 21:16:19.580, 1592536579580
172, 15408.46, 150584.05, 187500.00, 187500.00, -187500.02, -187500.02, -187500.02, -187500.02, 0.000, 0.000, 0.000, 21:16:19.581, 1592536579581
173, 15408.58, 150451.80, 187500.00, 187500.00, -187500.02, -187500.02, -187500.02, -187500.02, 0.000, 0.000, 0.000, 21:16:19.594, 1592536579594
174, 15395.77, 150278.06, 187500.00, 187500.00, -187500.02, -187500.02, -187500.02, -187500.02, 0.018, -0.048, 0.972, 21:16:19.594, 1592536579594
175, 15393.04, 150199.72, 187500.00, 187500.00, -187500.02, -187500.02, -187500.02, -187500.02, 0.000, 0.000, 0.000, 21:16:19.594, 1592536579594
176, 15395.84, 150214.41, 187500.00, 187500.00, -187500.02, -187500.02, -187500.02, -187500.02, 0.000, 0.000, 0.000, 21:16:19.609, 1592536579609
177, 15397.71, 150362.39, 187500.00, 187500.00, -187500.02, -187500.02, -187500.02, -187500.02, 0.000, 0.000, 0.000, 21:16:19.610, 1592536579610
178, 15394.52, 150458.58, 187500.00, 187500.00, -187500.02, -187500.02, -187500.02, -187500.02, 0.000, 0.000, 0.000, 21:16:19.610, 1592536579610
179, 15391.37, 150494.89, 187500.00, 187500.00, -187500.02, -187500.02, -187500.02, -187500.02, 0.000, 0.000, 0.000, 21:16:19.610, 1592536579610
180, 15405.36, 150538.97, 187500.00, 187500.00, -187500.02, -187500.02, -187500.02, -187500.02, 0.000, 0.000, 0.000, 21:16:19.624, 1592536579624
181, 15415.01, 150427.34, 187500.00, 187500.00, -187500.02, -187500.02, -187500.02, -187500.02, 0.000, 0.000, 0.000, 21:16:19.624, 1592536579624
182, 15398.52, 150254.86, 187500.00, 187500.00, -187500.02, -187500.02, -187500.02, -187500.02, 0.000, 0.000, 0.000, 21:16:19.625, 1592536579625
183, 15394.38, 150175.98, 187500.00, 187500.00, -187500.02, -187500.02, -187500.02, -187500.02, 0.000, 0.000, 0.000, 21:16:19.625, 1592536579625
184, 15411.33, 150202.58, 187500.00, 187500.00, -187500.02, -187500.02, -187500.02, -187500.02, 0.020, -0.046, 0.974, 21:16:19.640, 1592536579640
185, 15397.54, 150344.16, 187500.00, 187500.00, -187500.02, -187500.02, -187500.02, -187500.02, 0.000, 0.000, 0.000, 21:16:19.641, 1592536579641
186, 15392.55, 150446.38, 187500.00, 187500.00, -187500.02, -187500.02, -187500.02, -187500.02, 0.000, 0.000, 0.000, 21:16:19.641, 1592536579641
187, 15385.51, 150466.75, 187500.00, 187500.00, -187500.02, -187500.02, -187500.02, -187500.02, 0.000, 0.000, 0.000, 21:16:19.641, 1592536579641
188, 15398.99, 150504.89, 187500.00, 187500.00, -187500.02, -187500.02, -187500.02, -187500.02, 0.000, 0.000, 0.000, 21:16:19.653, 1592536579653
189, 15410.52, 150413.83, 187500.00, 187500.00, -187500.02, -187500.02, -187500.02, -187500.02, 0.000, 0.000, 0.000, 21:16:19.654, 1592536579654
190, 15401.94, 150264.16, 187500.00, 187500.00, -187500.02, -187500.02, -187500.02, -187500.02, 0.000, 0.000, 0.000, 21:16:19.654, 1592536579654
191, 15395.39, 150167.75, 187500.00, 187500.00, -187500.02, -187500.02, -187500.02, -187500.02, 0.000, 0.000, 0.000, 21:16:19.670, 1592536579670
192, 15395.57, 150161.83, 187500.00, 187500.00, -187500.02, -187500.02, -187500.02, -187500.02, 0.000, 0.000, 0.000, 21:16:19.670, 1592536579670
193, 15401.96, 150332.36, 187500.00, 187500.00, -187500.02, -187500.02, -187500.02, -187500.02, 0.000, 0.000, 0.000, 21:16:19.670, 1592536579670
194, 15400.75, 150466.81, 187500.00, 187500.00, -187500.02, -187500.02, -187500.02, -187500.02, 0.016, -0.040, 0.976, 21:16:19.670, 1592536579670
195, 15382.42, 150478.48, 187500.00, 187500.00, -187500.02, -187500.02, -187500.02, -187500.02, 0.000, 0.000, 0.000, 21:16:19.685, 1592536579685
196, 15383.43, 150485.48, 187500.00, 187500.00, -187500.02, -187500.02, -187500.02, -187500.02, 0.000, 0.000, 0.000, 21:16:19.685, 1592536579685
197, 15397.69, 150384.16, 187500.00, 187500.00, -187500.02, -187500.02, -187500.02, -187500.02, 0.000, 0.000, 0.000, 21:16:19.685, 1592536579685
198, 15399.01, 150262.45, 187500.00, 187500.00, -187500.02, -187500.02, -187500.02, -187500.02, 0.000, 0.000, 0.000, 21:16:19.685, 1592536579685
199, 15385.69, 150155.73, 187500.00, 187500.00, -187500.02, -187500.02, -187500.02, -187500.02, 0.000, 0.000, 0.000, 21:16:19.701, 1592536579701
200, 15387.05, 150129.08, 187500.00, 187500.00, -187500.02, -187500.02, -187500.02, -187500.02, 0.000, 0.000, 0.000, 21:16:19.701, 1592536579701
201, 15395.52, 150302.72, 187500.00, 187500.00, -187500.02, -187500.02, -187500.02, -187500.02, 0.000, 0.000, 0.000, 21:16:19.701, 1592536579701
202, 15391.41, 150444.92, 187500.00, 187500.00, -187500.02, -187500.02, -187500.02, -187500.02, 0.000, 0.000, 0.000, 21:16:19.701, 1592536579701
203, 15375.54, 150464.09, 187500.00, 187500.00, -187500.02, -187500.02, -187500.02, -187500.02, 0.016, -0.042, 0.972, 21:16:19.716, 1592536579716
204, 15383.03, 150467.16, 187500.00, 187500.00, -187500.02, -187500.02, -187500.02, -187500.02, 0.000, 0.000, 0.000, 21:16:19.716, 1592536579716
205, 15388.37, 150360.83, 187500.00, 187500.00, -187500.02, -187500.02, -187500.02, -187500.02, 0.000, 0.000, 0.000, 21:16:19.717, 1592536579717
206, 15377.42, 150242.13, 187500.00, 187500.00, -187500.02, -187500.02, -187500.02, -187500.02, 0.000, 0.000, 0.000, 21:16:19.730, 1592536579730
207, 15369.42, 150154.28, 187500.00, 187500.00, -187500.02, -187500.02, -187500.02, -187500.02, 0.000, 0.000, 0.000, 21:16:19.731, 1592536579731
208, 15368.19, 150119.92, 187500.00, 187500.00, -187500.02, -187500.02, -187500.02, -187500.02, 0.000, 0.000, 0.000, 21:16:19.731, 1592536579731
209, 15372.72, 150279.00, 187500.00, 187500.00, -187500.02, -187500.02, -187500.02, -187500.02, 0.000, 0.000, 0.000, 21:16:19.732, 1592536579732
210, 15377.17, 150436.31, 187500.00, 187500.00, -187500.02, -187500.02, -187500.02, -187500.02, 0.000, 0.000, 0.000, 21:16:19.746, 1592536579746
211, 15375.50, 150475.72, 187500.00, 187500.00, -187500.02, -187500.02, -187500.02, -187500.02, 0.000, 0.000, 0.000, 21:16:19.747, 1592536579747
212, 15372.23, 150448.05, 187500.00, 187500.00, -187500.02, -187500.02, -187500.02, -187500.02, 0.000, 0.000, 0.000, 21:16:19.747, 1592536579747
213, 15378.63, 150328.34, 187500.00, 187500.00, -187500.02, -187500.02, -187500.02, -187500.02, 0.020, -0.044, 0.972, 21:16:19.747, 1592536579747
214, 15382.94, 150235.03, 187500.00, 187500.00, -187500.02, -187500.02, -187500.02, -187500.02, 0.000, 0.000, 0.000, 21:16:19.759, 1592536579759
215, 15375.79, 150162.66, 187500.00, 187500.00, -187500.02, -187500.02, -187500.02, -187500.02, 0.000, 0.000, 0.000, 21:16:19.760, 1592536579760
216, 15366.11, 150112.14, 187500.00, 187500.00, -187500.02, -187500.02, -187500.02, -187500.02, 0.000, 0.000, 0.000, 21:16:19.760, 1592536579760
217, 15369.37, 150255.23, 187500.00, 187500.00, -187500.02, -187500.02, -187500.02, -187500.02, 0.000, 0.000, 0.000, 21:16:19.760, 1592536579760
218, 15381.02, 150425.47, 187500.00, 187500.00, -187500.02, -187500.02, -187500.02, -187500.02, 0.000, 0.000, 0.000, 21:16:19.774, 1592536579774
219, 15383.61, 150500.89, 187500.00, 187500.00, -187500.02, -187500.02, -187500.02, -187500.02, 0.000, 0.000, 0.000, 21:16:19.774, 1592536579774
220, 15368.90, 150470.84, 187500.00, 187500.00, -187500.02, -187500.02, -187500.02, -187500.02, 0.000, 0.000, 0.000, 21:16:19.775, 1592536579775
221, 15365.95, 150333.67, 187500.00, 187500.00, -187500.02, -187500.02, -187500.02, -187500.02, 0.000, 0.000, 0.000, 21:16:19.789, 1592536579789
222, 15383.43, 150255.50, 187500.00, 187500.00, -187500.02, -187500.02, -187500.02, -187500.02, 0.000, 0.000, 0.000, 21:16:19.789, 1592536579789
223, 15385.55, 150216.81, 187500.00, 187500.00, -187500.02, -187500.02, -187500.02, -187500.02, 0.018, -0.044, 0.974, 21:16:19.789, 1592536579789
224, 15367.34, 150167.59, 187500.00, 187500.00, -187500.02, -187500.02, -187500.02, -187500.02, 0.000, 0.000, 0.000, 21:16:19.789, 1592536579789
225, 15359.63, 150288.67, 187500.00, 187500.00, -187500.02, -187500.02, -187500.02, -187500.02, 0.000, 0.000, 0.000, 21:16:19.805, 1592536579805
226, 15376.41, 150473.19, 187500.00, 187500.00, -187500.02, -187500.02, -187500.02, -187500.02, 0.000, 0.000, 0.000, 21:16:19.805, 1592536579805
227, 15373.46, 150563.92, 187500.00, 187500.00, -187500.02, -187500.02, -187500.02, -187500.02, 0.000, 0.000, 0.000, 21:16:19.805, 1592536579805
228, 15363.99, 150547.95, 187500.00, 187500.00, -187500.02, -187500.02, -187500.02, -187500.02, 0.000, 0.000, 0.000, 21:16:19.805, 1592536579805
229, 15367.65, 150401.22, 187500.00, 187500.00, -187500.02, -187500.02, -187500.02, -187500.02, 0.000, 0.000, 0.000, 21:16:19.819, 1592536579819
230, 15378.74, 150310.77, 187500.00, 187500.00, -187500.02, -187500.02, -187500.02, -187500.02, 0.000, 0.000, 0.000, 21:16:19.819, 1592536579819
231, 15380.17, 150281.23, 187500.00, 187500.00, -187500.02, -187500.02, -187500.02, -187500.02, 0.000, 0.000, 0.000, 21:16:19.819, 1592536579819
232, 15366.02, 150241.14, 187500.00, 187500.00, -187500.02, -187500.02, -187500.02, -187500.02, 0.000, 0.000, 0.000, 21:16:19.820, 1592536579820
233, 15361.82, 150349.09, 187500.00, 187500.00, -187500.02, -187500.02, -187500.02, -187500.02, 0.018, -0.042, 0.968, 21:16:19.835, 1592536579835
234, 15365.17, 150496.09, 187500.00, 187500.00, -187500.02, -187500.02, -187500.02, -187500.02, 0.000, 0.000, 0.000, 21:16:19.835, 1592536579835
235, 15372.37, 150588.34, 187500.00, 187500.00, -187500.02, -187500.02, -187500.02, -187500.02, 0.000, 0.000, 0.000, 21:16:19.835, 1592536579835
236, 15373.66, 150586.31, 187500.00, 187500.00, -187500.02, -187500.02, -187500.02, -187500.02, 0.000, 0.000, 0.000, 21:16:19.850, 1592536579850
237, 15368.54, 150417.27, 187500.00, 187500.00, -187500.02, -187500.02, -187500.02, -187500.02, 0.000, 0.000, 0.000, 21:16:19.851, 1592536579851
238, 15373.04, 150300.52, 187500.00, 187500.00, -187500.02, -187500.02, -187500.02, -187500.02, 0.000, 0.000, 0.000, 21:16:19.852, 1592536579852
239, 15389.40, 150283.41, 187500.00, 187500.00, -187500.02, -187500.02, -187500.02, -187500.02, 0.000, 0.000, 0.000, 21:16:19.852, 1592536579852
240, 15374.11, 150258.66, 187500.00, 187500.00, -187500.02, -187500.02, -187500.02, -187500.02, 0.000, 0.000, 0.000, 21:16:19.865, 1592536579865
241, 15357.53, 150352.58, 187500.00, 187500.00, -187500.02, -187500.02, -187500.02, -187500.02, 0.000, 0.000, 0.000, 21:16:19.866, 1592536579866
242, 15364.39, 150483.69, 187500.00, 187500.00, -187500.02, -187500.02, -187500.02, -187500.02, 0.000, 0.000, 0.000, 21:16:19.867, 1592536579867
243, 15378.87, 150590.83, 187500.00, 187500.00, -187500.02, -187500.02, -187500.02, -187500.02, 0.018, -0.042, 0.968, 21:16:19.868, 1592536579868
244, 15376.21, 150604.58, 187500.00, 187500.00, -187500.02, -187500.02, -187500.02, -187500.02, 0.000, 0.000, 0.000, 21:16:19.882, 1592536579882
245, 15359.74, 150422.41, 187500.00, 187500.00, -187500.02, -187500.02, -187500.02, -187500.02, 0.000, 0.000, 0.000, 21:16:19.883, 1592536579883
246, 15362.33, 150289.95, 187500.00, 187500.00, -187500.02, -187500.02, -187500.02, -187500.02, 0.000, 0.000, 0.000, 21:16:19.883, 1592536579883
247, 15373.02, 150274.58, 187500.00, 187500.00, -187500.02, -187500.02, -187500.02, -187500.02, 0.000, 0.000, 0.000, 21:16:19.884, 1592536579884
248, 15376.88, 150277.97, 187500.00, 187500.00, -187500.02, -187500.02, -187500.02, -187500.02, 0.000, 0.000, 0.000, 21:16:19.894, 1592536579894
249, 15370.49, 150380.39, 187500.00, 187500.00, -187500.02, -187500.02, -187500.02, -187500.02, 0.000, 0.000, 0.000, 21:16:19.894, 1592536579894
250, 15373.51, 150500.70, 187500.00, 187500.00, -187500.02, -187500.02, -187500.02, -187500.02, 0.000, 0.000, 0.000, 21:16:19.895, 1592536579895
251, 15375.41, 150586.92, 187500.00, 187500.00, -187500.02, -187500.02, -187500.02, -187500.02, 0.000, 0.000, 0.000, 21:16:19.909, 1592536579909
252, 15376.79, 150608.98, 187500.00, 187500.00, -187500.02, -187500.02, -187500.02, -187500.02, 0.000, 0.000, 0.000, 21:16:19.910, 1592536579910
253, 15362.96, 150428.55, 187500.00, 187500.00, -187500.02, -187500.02, -187500.02, -187500.02, 0.018, -0.042, 0.974, 21:16:19.910, 1592536579910
254, 15357.21, 150272.77, 187500.00, 187500.00, -187500.02, -187500.02, -187500.02, -187500.02, 0.000, 0.000, 0.000, 21:16:19.910, 1592536579910
255, 15370.94, 150249.42, 187500.00, 187500.00, -187500.02, -187500.02, -187500.02, -187500.02, 0.000, 0.000, 0.000, 21:16:19.924, 1592536579924
0, 15370.31, 150264.41, 187500.00, 187500.00, -187500.02, -187500.02, -187500.02, -187500.02, 0.000, 0.000, 0.000, 21:16:19.924, 1592536579924
1, 15358.51, 150369.17, 187500.00, 187500.00, -187500.02, -187500.02, -187500.02, -187500.02, 0.000, 0.000, 0.000, 21:16:19.924, 1592536579924
2, 15355.00, 150465.09, 187500.00, 187500.00, -187500.02, -187500.02, -187500.02, -187500.02, 0.000, 0.000, 0.000, 21:16:19.924, 1592536579924
3, 15363.83, 150548.78, 187500.00, 187500.00, -187500.02, -187500.02, -187500.02, -187500.02, 0.000, 0.000, 0.000, 21:16:19.940, 1592536579940
4, 15368.23, 150594.16, 187500.00, 187500.00, -187500.02, -187500.02, -187500.02, -187500.02, 0.000, 0.000, 0.000, 21:16:19.940, 1592536579940
5, 15363.45, 150443.02, 187500.00, 187500.00, -187500.02, -187500.02, -187500.02, -187500.02, 0.000, 0.000, 0.000, 21:16:19.940, 1592536579940
6, 15361.86, 150277.34, 187500.00, 187500.00, -187500.02, -187500.02, -187500.02, -187500.02, 0.000, 0.000, 0.000, 21:16:19.940, 1592536579940
7, 15365.73, 150230.36, 187500.00, 187500.00, -187500.02, -187500.02, -187500.02, -187500.02, 0.022, -0.042, 0.968, 21:16:19.953, 1592536579953
8, 15364.28, 150251.42, 187500.00, 187500.00, -187500.02, -187500.02, -187500.02, -187500.02, 0.000, 0.000, 0.000, 21:16:19.954, 1592536579954
9, 15357.19, 150371.72, 187500.00, 187500.00, -187500.02, -187500.02, -187500.02, -187500.02, 0.000, 0.000, 0.000, 21:16:19.954, 1592536579954
10, 15350.98, 150461.19, 187500.00, 187500.00, -187500.02, -187500.02, -187500.02, -187500.02, 0.000, 0.000, 0.000, 21:16:19.970, 1592536579970
11, 15359.31, 150534.45, 187500.00, 187500.00, -187500.02, -187500.02, -187500.02, -187500.02, 0.000, 0.000, 0.000, 21:16:19.970, 1592536579970
12, 15377.28, 150591.45, 187500.00, 187500.00, -187500.02, -187500.02, -187500.02, -187500.02, 0.000, 0.000, 0.000, 21:16:19.970, 1592536579970
13, 15375.83, 150452.45, 187500.00, 187500.00, -187500.02, -187500.02, -187500.02, -187500.02, 0.000, 0.000, 0.000, 21:16:19.970, 1592536579970
14, 15368.14, 150280.25, 187500.00, 187500.00, -187500.02, -187500.02, -187500.02, -187500.02, 0.000, 0.000, 0.000, 21:16:19.985, 1592536579985
15, 15367.11, 150210.83, 187500.00, 187500.00, -187500.02, -187500.02, -187500.02, -187500.02, 0.000, 0.000, 0.000, 21:16:19.986, 1592536579986
16, 15374.60, 150231.64, 187500.00, 187500.00, -187500.02, -187500.02, -187500.02, -187500.02, 0.000, 0.000, 0.000, 21:16:19.987, 1592536579987
17, 15371.27, 150376.86, 187500.00, 187500.00, -187500.02, -187500.02, -187500.02, -187500.02, 0.020, -0.042, 0.970, 21:16:19.987, 1592536579987
18, 15357.06, 150462.34, 187500.00, 187500.00, -187500.02, -187500.02, -187500.02, -187500.02, 0.000, 0.000, 0.000, 21:16:20.001, 1592536580001
19, 15355.63, 150501.91, 187500.00, 187500.00, -187500.02, -187500.02, -187500.02, -187500.02, 0.000, 0.000, 0.000, 21:16:20.001, 1592536580001
20, 15367.83, 150546.81, 187500.00, 187500.00, -187500.02, -187500.02, -187500.02, -187500.02, 0.000, 0.000, 0.000, 21:16:20.002, 1592536580002
21, 15374.22, 150437.36, 187500.00, 187500.00, -187500.02, -187500.02, -187500.02, -187500.02, 0.000, 0.000, 0.000, 21:16:20.003, 1592536580003
22, 15355.40, 150267.94, 187500.00, 187500.00, -187500.02, -187500.02, -187500.02, -187500.02, 0.000, 0.000, 0.000, 21:16:20.016, 1592536580016
23, 15343.87, 150174.81, 187500.00, 187500.00, -187500.02, -187500.02, -187500.02, -187500.02, 0.000, 0.000, 0.000, 21:16:20.017, 1592536580017
24, 15361.88, 150199.52, 187500.00, 187500.00, -187500.02, -187500.02, -187500.02, -187500.02, 0.000, 0.000, 0.000, 21:16:20.018, 1592536580018
25, 15368.54, 150365.00, 187500.00, 187500.00, -187500.02, -187500.02, -187500.02, -187500.02, 0.000, 0.000, 0.000, 21:16:20.030, 1592536580030
26, 15356.68, 150466.53, 187500.00, 187500.00, -187500.02, -187500.02, -187500.02, -187500.02, 0.000, 0.000, 0.000, 21:16:20.030, 1592536580030
27, 15353.10, 150494.38, 187500.00, 187500.00, -187500.02, -187500.02, -187500.02, -187500.02, 0.020, -0.042, 0.972, 21:16:20.030, 1592536580030
28, 15358.31, 150522.16, 187500.00, 187500.00, -187500.02, -187500.02, -187500.02, -187500.02, 0.000, 0.000, 0.000, 21:16:20.031, 1592536580031
29, 15366.82, 150421.41, 187500.00, 187500.00, -187500.02, -187500.02, -187500.02, -187500.02, 0.000, 0.000, 0.000, 21:16:20.045, 1592536580045
30, 15362.55, 150274.53, 187500.00, 187500.00, -187500.02, -187500.02, -187500.02, -187500.02, 0.000, 0.000, 0.000, 21:16:20.046, 1592536580046
31, 15361.57, 150179.98, 187500.00, 187500.00, -187500.02, -187500.02, -187500.02, -187500.02, 0.000, 0.000, 0.000, 21:16:20.047, 1592536580047
32, 15365.06, 150175.63, 187500.00, 187500.00, -187500.02, -187500.02, -187500.02, -187500.02, 0.000, 0.000, 0.000, 21:16:20.047, 1592536580047
33, 15369.35, 150346.28, 187500.00, 187500.00, -187500.02, -187500.02, -187500.02, -187500.02, 0.000, 0.000, 0.000, 21:16:20.060, 1592536580060
34, 15364.16, 150466.59, 187500.00, 187500.00, -187500.02, -187500.02, -187500.02, -187500.02, 0.000, 0.000, 0.000, 21:16:20.060, 1592536580060
35, 15354.26, 150476.09, 187500.00, 187500.00, -187500.02, -187500.02, -187500.02, -187500.02, 0.000, 0.000, 0.000, 21:16:20.060, 1592536580060
36, 15363.20, 150493.64, 187500.00, 187500.00, -187500.02, -187500.02, -187500.02, -187500.02, 0.022, -0.044, 0.974, 21:16:20.060, 1592536580060
37, 15373.64, 150399.55, 187500.00, 187500.00, -187500.02, -187500.02, -187500.02, -187500.02, 0.000, 0.000, 0.000, 21:16:20.074, 1592536580074
38, 15374.71, 150275.67, 187500.00, 187500.00, -187500.02, -187500.02, -187500.02, -187500.02, 0.000, 0.000, 0.000, 21:16:20.074, 1592536580074
39, 15373.62, 150180.72, 187500.00, 187500.00, -187500.02, -187500.02, -187500.02, -187500.02, 0.000, 0.000, 0.000, 21:16:20.074, 1592536580074
40, 15372.79, 150159.86, 187500.00, 187500.00, -187500.02, -187500.02, -187500.02, -187500.02, 0.000, 0.000, 0.000, 21:16:20.074, 1592536580074
41, 15372.03, 150326.27, 187500.00, 187500.00, -187500.02, -187500.02, -187500.02, -187500.02, 0.000, 0.000, 0.000, 21:16:20.089, 1592536580089
42, 15367.70, 150470.34, 187500.00, 187500.00, -187500.02, -187500.02, -187500.02, -187500.02, 0.000, 0.000, 0.000, 21:16:20.089, 1592536580089
43, 15352.36, 150489.27, 187500.00, 187500.00, -187500.02, -187500.02, -187500.02, -187500.02, 0.000, 0.000, 0.000, 21:16:20.089, 1592536580089
44, 15352.25, 150490.31, 187500.00, 187500.00, -187500.02, -187500.02, -187500.02, -187500.02, 0.000, 0.000, 0.000, 21:16:20.105, 1592536580105
45, 15361.64, 150393.06, 187500.00, 187500.00, -187500.02, -187500.02, -187500.02, -187500.02, 0.000, 0.000, 0.000, 21:16:20.105, 1592536580105
46, 15367.11, 150288.28, 187500.00, 187500.00, -187500.02, -187500.02, -187500.02, -187500.02, 0.020, -0.042, 0.972, 21:16:20.105, 1592536580105
47, 15360.41, 150201.06, 187500.00, 187500.00, -187500.02, -187500.02, -187500.02, -187500.02, 0.000, 0.000, 0.000, 21:16:20.105, 1592536580105
48, 15356.18, 150157.73, 187500.00, 187500.00, -187500.02, -187500.02, -187500.02, -187500.02, 0.000, 0.000, 0.000, 21:16:20.120, 1592536580120
49, 15362.76, 150315.45, 187500.00, 187500.00, -187500.02, -187500.02, -187500.02, -187500.02, 0.000, 0.000, 0.000, 21:16:20.120, 1592536580120
50, 15369.73, 150470.69, 187500.00, 187500.00, -187500.02, -187500.02, -187500.02, -187500.02, 0.000, 0.000, 0.000, 21:16:20.120, 1592536580120
51, 15362.24, 150500.91, 187500.00, 187500.00, -187500.02, -187500.02, -187500.02, -187500.02, 0.000, 0.000, 0.000, 21:16:20.120, 1592536580120
52, 15366.29, 150487.72, 187500.00, 187500.00, -187500.02, -187500.02, -187500.02, -187500.02, 0.000, 0.000, 0.000, 21:16:20.135, 1592536580135
53, 15379.07, 150378.91, 187500.00, 187500.00, -187500.02, -187500.02, -187500.02, -187500.02, 0.000, 0.000, 0.000, 21:16:20.136, 1592536580136
54, 15370.44, 150272.58, 187500.00, 187500.00, -187500.02, -187500.02, -187500.02, -187500.02, 0.000, 0.000, 0.000, 21:16:20.136, 1592536580136
55, 15360.48, 150190.48, 187500.00, 187500.00, -187500.02, -187500.02, -187500.02, -187500.02, 0.000, 0.000, 0.000, 21:16:20.136, 1592536580136
56, 15357.01, 150141.33, 187500.00, 187500.00, -187500.02, -187500.02, -187500.02, -187500.02, 0.016, -0.042, 0.974, 21:16:20.150, 1592536580150
57, 15372.08, 150291.84, 187500.00, 187500.00, -187500.02, -187500.02, -187500.02, -187500.02, 0.000, 0.000, 0.000, 21:16:20.151, 1592536580151
58, 15383.01, 150459.28, 187500.00, 187500.00, -187500.02, -187500.02, -187500.02, -187500.02, 0.000, 0.000, 0.000, 21:16:20.151, 1592536580151
59, 15367.34, 150503.25, 187500.00, 187500.00, -187500.02, -187500.02, -187500.02, -187500.02, 0.000, 0.000, 0.000, 21:16:20.166, 1592536580166
60, 15356.07, 150470.98, 187500.00, 187500.00, -187500.02, -187500.02, -187500.02, -187500.02, 0.000, 0.000, 0.000, 21:16:20.167, 1592536580167
61, 15349.03, 150326.19, 187500.00, 187500.00, -187500.02, -187500.02, -187500.02, -187500.02, 0.000, 0.000, 0.000, 21:16:20.168, 1592536580168
62, 15362.35, 150238.23, 187500.00, 187500.00, -187500.02, -187500.02, -187500.02, -187500.02, 0.000, 0.000, 0.000, 21:16:20.169, 1592536580169
63, 15364.59, 150186.97, 187500.00, 187500.00, -187500.02, -187500.02, -187500.02, -187500.02, 0.000, 0.000, 0.000, 21:16:20.180, 1592536580180
64, 15350.64, 150125.73, 187500.00, 187500.00, -187500.02, -187500.02, -187500.02, -187500.02, 0.000, 0.000, 0.000, 21:16:20.180, 1592536580180
65, 15360.10, 150257.16, 187500.00, 187500.00, -187500.02, -187500.02, -187500.02, -187500.02, 0.000, 0.000, 0.000, 21:16:20.181, 1592536580181
66, 15375.43, 150439.17, 187500.00, 187500.00, -187500.02, -187500.02, -187500.02, -187500.02, 0.012, -0.042, 0.968, 21:16:20.181, 1592536580181
67, 15371.81, 150517.38, 187500.00, 187500.00, -187500.02, -187500.02, -187500.02, -187500.02, 0.000, 0.000, 0.000, 21:16:20.196, 1592536580196
68, 15351.56, 150476.61, 187500.00, 187500.00, -187500.02, -187500.02, -187500.02, -187500.02, 0.000, 0.000, 0.000, 21:16:20.196, 1592536580196
69, 15356.92, 150321.98, 187500.00, 187500.00, -187500.02, -187500.02, -187500.02, -187500.02, 0.000, 0.000, 0.000, 21:16:20.196, 1592536580196
70, 15368.03, 150226.42, 187500.00, 187500.00, -187500.02, -187500.02, -187500.02, -187500.02, 0.000, 0.000, 0.000, 21:16:20.196, 1592536580196
71, 15370.58, 150195.30, 187500.00, 187500.00, -187500.02, -187500.02, -187500.02, -187500.02, 0.000, 0.000, 0.000, 21:16:20.209, 1592536580209
72, 15355.22, 150157.41, 187500.00, 187500.00, -187500.02, -187500.02, -187500.02, -187500.02, 0.000, 0.000, 0.000, 21:16:20.210, 1592536580210
73, 15357.06, 150271.80, 187500.00, 187500.00, -187500.02, -187500.02, -187500.02, -187500.02, 0.000, 0.000, 0.000, 21:16:20.210, 1592536580210
74, 15365.37, 150423.72, 187500.00, 187500.00, -187500.02, -187500.02, -187500.02, -187500.02, 0.000, 0.000, 0.000, 21:16:20.225, 1592536580225
75, 15373.28, 150507.86, 187500.00, 187500.00, -187500.02, -187500.02, -187500.02, -187500.02, 0.000, 0.000, 0.000, 21:16:20.225, 1592536580225
76, 15370.20, 150493.91, 187500.00, 187500.00, -187500.02, -187500.02, -187500.02, -187500.02, 0.016, -0.044, 0.972, 21:16:20.225, 1592536580225
77, 15359.09, 150316.84, 187500.00, 187500.00, -187500.02, -187500.02, -187500.02, -187500.02, 0.000, 0.000, 0.000, 21:16:20.225, 1592536580225
78, 15368.81, 150200.88, 187500.00, 187500.00, -187500.02, -187500.02, -187500.02, -187500.02, 0.000, 0.000, 0.000, 21:16:20.240, 1592536580240
79, 15375.61, 150175.67, 187500.00, 187500.00, -187500.02, -187500.02, -187500.02, -187500.02, 0.000, 0.000, 0.000, 21:16:20.240, 1592536580240
80, 15363.29, 150142.61, 187500.00, 187500.00, -187500.02, -187500.02, -187500.02, -187500.02, 0.000, 0.000, 0.000, 21:16:20.240, 1592536580240
81, 15353.21, 150230.94, 187500.00, 187500.00, -187500.02, -187500.02, -187500.02, -187500.02, 0.000, 0.000, 0.000, 21:16:20.241, 1592536580241
82, 15352.83, 150365.45, 187500.00, 187500.00, -187500.02, -187500.02, -187500.02, -187500.02, 0.000, 0.000, 0.000, 21:16:20.254, 1592536580254
83, 15359.81, 150460.88, 187500.00, 187500.00, -187500.02, -187500.02, -187500.02, -187500.02, 0.000, 0.000, 0.000, 21:16:20.255, 1592536580255
84, 15358.49, 150468.91, 187500.00, 187500.00, -187500.02, -187500.02, -187500.02, -187500.02, 0.000, 0.000, 0.000, 21:16:20.255, 1592536580255
85, 15353.39, 150297.97, 187500.00, 187500.00, -187500.02, -187500.02, -187500.02, -187500.02, 0.000, 0.000, 0.000, 21:16:20.255, 1592536580255
86, 15358.89, 150166.59, 187500.00, 187500.00, -187500.02, -187500.02, -187500.02, -187500.02, 0.014, -0.046, 0.970, 21:16:20.270, 1592536580270
87, 15366.58, 150143.44, 187500.00, 187500.00, -187500.02, -187500.02, -187500.02, -187500.02, 0.000, 0.000, 0.000, 21:16:20.270, 1592536580270
88, 15363.09, 150137.31, 187500.00, 187500.00, -187500.02, -187500.02, -187500.02, -187500.02, 0.000, 0.000, 0.000, 21:16:20.270, 1592536580270
89, 15349.93, 150230.92, 187500.00, 187500.00, -187500.02, -187500.02, -187500.02, -187500.02, 0.000, 0.000, 0.000, 21:16:20.285, 1592536580285
90, 15354.82, 150357.25, 187500.00, 187500.00, -187500.02, -187500.02, -187500.02, -187500.02, 0.000, 0.000, 0.000, 21:16:20.285, 1592536580285
91, 15374.07, 150471.33, 187500.00, 187500.00, -187500.02, -187500.02, -187500.02, -187500.02, 0.000, 0.000, 0.000, 21:16:20.285, 1592536580285
92, 15365.21, 150509.69, 187500.00, 187500.00, -187500.02, -187500.02, -187500.02, -187500.02, 0.000, 0.000, 0.000, 21:16:20.285, 1592536580285
93, 15342.26, 150352.52, 187500.00, 187500.00, -187500.02, -187500.02, -187500.02, -187500.02, 0.000, 0.000, 0.000, 21:16:20.301, 1592536580301
94, 15348.90, 150225.13, 187500.00, 187500.00, -187500.02, -187500.02, -187500.02, -187500.02, 0.000, 0.000, 0.000, 21:16:20.301, 1592536580301
95, 15361.62, 150185.30, 187500.00, 187500.00, -187500.02, -187500.02, -187500.02, -187500.02, 0.000, 0.000, 0.000, 21:16:20.302, 1592536580302
96, 15363.16, 150183.17, 187500.00, 187500.00, -187500.02, -187500.02, -187500.02, -187500.02, 0.012, -0.048, 0.972, 21:16:20.302, 1592536580302
97, 15356.16, 150277.09, 187500.00, 187500.00, -187500.02, -187500.02, -187500.02, -187500.02, 0.000, 0.000, 0.000, 21:16:20.316, 1592536580316
98, 15355.56, 150374.34, 187500.00, 187500.00, -187500.02, -187500.02, -187500.02, -187500.02, 0.000, 0.000, 0.000, 21:16:20.317, 1592536580317
99, 15359.65, 150452.89, 187500.00, 187500.00, -187500.02, -187500.02, -187500.02, -187500.02, 0.000, 0.000, 0.000, 21:16:20.318, 1592536580318
100, 15357.24, 150483.41, 187500.00, 187500.00, -187500.02, -187500.02, -187500.02, -187500.02, 0.000, 0.000, 0.000, 21:16:20.318, 1592536580318
101, 15353.26, 150317.39, 187500.00, 187500.00, -187500.02, -187500.02, -187500.02, -187500.02, 0.000, 0.000, 0.000, 21:16:20.330, 1592536580330
102, 15349.41, 150148.78, 187500.00, 187500.00, -187500.02, -187500.02, -187500.02, -187500.02, 0.000, 0.000, 0.000, 21:16:20.331, 1592536580331
103, 15351.54, 150106.00, 187500.00, 187500.00, -187500.02, -187500.02, -187500.02, -187500.02, 0.000, 0.000, 0.000, 21:16:20.332, 1592536580332
104, 15359.34, 150128.42, 187500.00, 187500.00, -187500.02, -187500.02, -187500.02, -187500.02, 0.000, 0.000, 0.000, 21:16:20.345, 1592536580345
105, 15351.04, 150245.42, 187500.00, 187500.00, -187500.02, -187500.02, -187500.02, -187500.02, 0.000, 0.000, 0.000, 21:16:20.345, 1592536580345
106, 15346.10, 150342.64, 187500.00, 187500.00, -187500.02, -187500.02, -187500.02, -187500.02, 0.014, -0.050, 0.978, 21:16:20.346, 1592536580346
107, 15351.74, 150415.19, 187500.00, 187500.00, -187500.02, -187500.02, -187500.02, -187500.02, 0.000, 0.000, 0.000, 21:16:20.347, 1592536580347
108, 15358.31, 150463.88, 187500.00, 187500.00, -187500.02, -187500.02, -187500.02, -187500.02, 0.000, 0.000, 0.000, 21:16:20.360, 1592536580360
109, 15356.74, 150327.23, 187500.00, 187500.00, -187500.02, -187500.02, -187500.02, -187500.02, 0.000, 0.000, 0.000, 21:16:20.360, 1592536580360
110, 15352.63, 150158.77, 187500.00, 187500.00, -187500.02, -187500.02, -187500.02, -187500.02, 0.000, 0.000, 0.000, 21:16:20.361, 1592536580361
111, 15355.74, 150100.31, 187500.00, 187500.00, -187500.02, -187500.02, -187500.02, -187500.02, 0.000, 0.000, 0.000, 21:16:20.361, 1592536580361
112, 15359.27, 150122.20, 187500.00, 187500.00, -187500.02, -187500.02, -187500.02, -187500.02, 0.000, 0.000, 0.000, 21:16:20.375, 1592536580375
113, 15356.56, 150261.11, 187500.00, 187500.00, -187500.02, -187500.02, -187500.02, -187500.02, 0.000, 0.000, 0.000, 21:16:20.375, 1592536580375
114, 15343.53, 150345.72, 187500.00, 187500.00, -187500.02, -187500.02, -187500.02, -187500.02, 0.000, 0.000, 0.000, 21:16:20.376, 1592536580376
115, 15343.87, 150395.94, 187500.00, 187500.00, -187500.02, -187500.02, -187500.02, -187500.02, 0.014, -0.048, 0.974, 21:16:20.376, 1592536580376
116, 15357.53, 150450.50, 187500.00, 187500.00, -187500.02, -187500.02, -187500.02, -187500.02, 0.000, 0.000, 0.000, 21:16:20.390, 1592536580390
117, 15356.97, 150332.52, 187500.00, 187500.00, -187500.02, -187500.02, -187500.02, -187500.02, 0.000, 0.000, 0.000, 21:16:20.390, 1592536580390
118, 15350.53, 150164.92, 187500.00, 187500.00, -187500.02, -187500.02, -187500.02, -187500.02, 0.000, 0.000, 0.000, 21:16:20.390, 1592536580390
119, 15346.28, 150075.78, 187500.00, 187500.00, -187500.02, -187500.02, -187500.02, -187500.02, 0.000, 0.000, 0.000, 21:16:20.404, 1592536580404
120, 15352.70, 150093.95, 187500.00, 187500.00, -187500.02, -187500.02, -187500.02, -187500.02, 0.000, 0.000, 0.000, 21:16:20.404, 1592536580404
121, 15357.39, 150256.64, 187500.00, 187500.00, -187500.02, -187500.02, -187500.02, -187500.02, 0.000, 0.000, 0.000, 21:16:20.404, 1592536580404
122, 15355.63, 150361.70, 187500.00, 187500.00, -187500.02, -187500.02, -187500.02, -187500.02, 0.000, 0.000, 0.000, 21:16:20.404, 1592536580404
123, 15349.99, 150389.77, 187500.00, 187500.00, -187500.02, -187500.02, -187500.02, -187500.02, 0.000, 0.000, 0.000, 21:16:20.420, 1592536580420
124, 15355.78, 150425.17, 187500.00, 187500.00, -187500.02, -187500.02, -187500.02, -187500.02, 0.000, 0.000, 0.000, 21:16:20.420, 1592536580420
125, 15363.76, 150331.70, 187500.00, 187500.00, -187500.02, -187500.02, -187500.02, -187500.02, 0.014, -0.046, 0.974, 21:16:20.420, 1592536580420
126, 15350.37, 150179.53, 187500.00, 187500.00, -187500.02, -187500.02, -187500.02, -187500.02, 0.000, 0.000, 0.000, 21:16:20.420, 1592536580420
127, 15343.78, 150079.02, 187500.00, 187500.00, -187500.02, -187500.02, -187500.02, -187500.02, 0.000, 0.000, 0.000, 21:16:20.436, 1592536580436
128, 15351.92, 150080.63, 187500.00, 187500.00, -187500.02, -187500.02, -187500.02, -187500.02, 0.000, 0.000, 0.000, 21:16:20.436, 1592536580436
129, 15354.15, 150249.94, 187500.00, 187500.00, -187500.02, -187500.02, -187500.02, -187500.02, 0.000, 0.000, 0.000, 21:16:20.436, 1592536580436
130, 15343.18, 150367.02, 187500.00, 187500.00, -187500.02, -187500.02, -187500.02, -187500.02, 0.000, 0.000, 0.000, 21:16:20.436, 1592536580436
131, 15335.24, 150381.81, 187500.00, 187500.00, -187500.02, -187500.02, -187500.02, -187500.02, 0.000, 0.000, 0.000, 21:16:20.451, 1592536580451
132, 15346.42, 150404.19, 187500.00, 187500.00, -187500.02, -187500.02, -187500.02, -187500.02, 0.000, 0.000, 0.000, 21:16:20.451, 1592536580451
133, 15357.79, 150312.92, 187500.00, 187500.00, -187500.02, -187500.02, -187500.02, -187500.02, 0.000, 0.000, 0.000, 21:16:20.451, 1592536580451
134, 15351.76, 150182.39, 187500.00, 187500.00, -187500.02, -187500.02, -187500.02, -187500.02, 0.000, 0.000, 0.000, 21:16:20.466, 1592536580466
135, 15330.44, 150069.08, 187500.00, 187500.00, -187500.02, -187500.02, -187500.02, -187500.02, 0.016, -0.042, 0.976, 21:16:20.467, 1592536580467
136, 15328.89, 150048.91, 187500.00, 187500.00, -187500.02, -187500.02, -187500.02, -187500.02, 0.000, 0.000, 0.000, 21:16:20.468, 1592536580468
137, 15340.14, 150218.33, 187500.00, 187500.00, -187500.02, -187500.02, -187500.02, -187500.02, 0.000, 0.000, 0.000, 21:16:20.469, 1592536580469
138, 15334.19, 150349.41, 187500.00, 187500.00, -187500.02, -187500.02, -187500.02, -187500.02, 0.000, 0.000, 0.000, 21:16:20.481, 1592536580481
139, 15321.00, 150366.34, 187500.00, 187500.00, -187500.02, -187500.02, -187500.02, -187500.02, 0.000, 0.000, 0.000, 21:16:20.481, 1592536580481
140, 15323.80, 150363.89, 187500.00, 187500.00, -187500.02, -187500.02, -187500.02, -187500.02, 0.000, 0.000, 0.000, 21:16:20.481, 1592536580481
